%OpenBCI Raw EEG Data
%Number of channels = 8
%Sample Rate = 250.0 Hz
%First Column = SampleIndex
%Last Column = Timestamp 
%Other Columns = EEG data in microvolts followed by Accel Data (in G) interleaved with Aux Data
0, 0.00, 0.00, 0.00, 0.00, 0.00, 0.00, 0.00, 0.00, 0.060, 0.002, 1.000, 23:23:29.843, 1550615009843
1, -17251.12, -66255.73, -83740.07, -58542.50, -29800.82, -13052.43, -17454.83, -8264.83, 0.000, 0.000, 0.000, 23:23:29.903, 1550615009903
2, -17247.10, -66246.03, -83735.00, -58530.59, -29801.20, -13047.81, -17443.84, -8256.71, 0.000, 0.000, 0.000, 23:23:29.903, 1550615009903
3, -17241.93, -66242.39, -83731.24, -58527.82, -29802.27, -13049.55, -17441.96, -8243.90, 0.000, 0.000, 0.000, 23:23:29.903, 1550615009903
4, -17235.07, -66236.15, -83724.87, -58520.11, -29796.53, -13049.75, -17444.26, -8240.93, 0.000, 0.000, 0.000, 23:23:29.903, 1550615009903
5, -17239.21, -66239.93, -83730.44, -58526.43, -29812.38, -13061.91, -17465.18, -8251.39, 0.000, 0.000, 0.000, 23:23:29.903, 1550615009903
6, -17240.48, -66239.51, -83730.68, -58531.48, -29816.89, -13065.53, -17460.53, -8249.85, 0.000, 0.000, 0.000, 23:23:29.903, 1550615009903
7, -17233.91, -66226.00, -83725.36, -58526.48, -29810.43, -13057.64, -17443.97, -8243.21, 0.000, 0.000, 0.000, 23:23:29.903, 1550615009903
8, -17234.29, -66224.13, -83728.45, -58527.91, -29804.73, -13055.68, -17454.46, -8247.55, 0.066, -0.004, 0.984, 23:23:29.903, 1550615009903
9, -17229.89, -66215.30, -83724.22, -58519.73, -29803.57, -13050.31, -17449.18, -8243.75, 0.000, 0.000, 0.000, 23:23:29.904, 1550615009904
10, -17230.87, -66215.01, -83720.06, -58522.30, -29814.10, -13048.43, -17458.19, -8240.71, 0.000, 0.000, 0.000, 23:23:29.904, 1550615009904
11, -17229.04, -66215.72, -83715.84, -58524.60, -29806.23, -13043.56, -17454.37, -8230.25, 0.000, 0.000, 0.000, 23:23:29.904, 1550615009904
12, -17229.33, -66220.20, -83716.40, -58529.09, -29805.87, -13043.38, -17449.85, -8221.44, 0.000, 0.000, 0.000, 23:23:29.904, 1550615009904
13, -17234.00, -66224.13, -83720.36, -58530.37, -29807.59, -13042.13, -17451.50, -8230.43, 0.000, 0.000, 0.000, 23:23:29.904, 1550615009904
14, -17236.53, -66228.10, -83721.43, -58533.23, -29803.10, -13035.96, -17457.74, -8241.51, 0.000, 0.000, 0.000, 23:23:29.904, 1550615009904
15, -17235.88, -66229.73, -83719.44, -58538.70, -29794.58, -13030.26, -17450.01, -8253.47, 0.000, 0.000, 0.000, 23:23:29.904, 1550615009904
16, -17234.47, -66226.96, -83710.92, -58538.86, -29793.76, -13023.18, -17448.44, -8258.72, 0.000, 0.000, 0.000, 23:23:29.965, 1550615009965
17, -17224.57, -66219.63, -83699.14, -58533.74, -29794.36, -13017.77, -17453.56, -8254.88, 0.066, 0.004, 0.994, 23:23:29.965, 1550615009965
18, -17223.18, -66212.55, -83702.70, -58530.05, -29796.91, -13024.27, -17453.47, -8255.44, 0.000, 0.000, 0.000, 23:23:29.965, 1550615009965
19, -17227.20, -66210.42, -83705.98, -58526.43, -29793.96, -13029.19, -17440.02, -8257.40, 0.000, 0.000, 0.000, 23:23:29.965, 1550615009965
20, -17224.48, -66210.38, -83706.74, -58523.04, -29799.61, -13029.26, -17451.37, -8253.90, 0.000, 0.000, 0.000, 23:23:29.966, 1550615009966
21, -17216.47, -66205.51, -83700.73, -58518.70, -29805.65, -13023.60, -17461.27, -8229.29, 0.000, 0.000, 0.000, 23:23:29.966, 1550615009966
22, -17212.52, -66202.20, -83698.12, -58515.99, -29797.89, -13021.37, -17441.78, -8220.50, 0.000, 0.000, 0.000, 23:23:29.966, 1550615009966
23, -17215.00, -66205.17, -83701.85, -58529.61, -29804.42, -13029.73, -17450.92, -8240.86, 0.000, 0.000, 0.000, 23:23:29.966, 1550615009966
24, -17218.73, -66210.16, -83700.95, -58528.29, -29806.70, -13031.98, -17454.68, -8254.70, 0.000, 0.000, 0.000, 23:23:29.966, 1550615009966
25, -17216.39, -66210.36, -83698.83, -58527.57, -29809.94, -13036.92, -17459.33, -8257.16, 0.000, 0.000, 0.000, 23:23:29.966, 1550615009966
26, -17212.79, -66205.26, -83695.99, -58528.69, -29796.33, -13034.04, -17434.83, -8254.41, 0.000, 0.000, 0.000, 23:23:29.967, 1550615009967
27, -17217.06, -66211.05, -83697.71, -58531.48, -29799.61, -13033.61, -17447.39, -8257.23, 0.066, 0.002, 0.998, 23:23:29.967, 1550615009967
28, -17215.13, -66210.45, -83697.04, -58522.72, -29808.53, -13036.86, -17448.51, -8255.30, 0.000, 0.000, 0.000, 23:23:29.967, 1550615009967
29, -17217.50, -66208.32, -83698.02, -58523.97, -29803.72, -13035.65, -17439.43, -8257.02, 0.000, 0.000, 0.000, 23:23:29.967, 1550615009967
30, -17223.14, -66216.19, -83700.04, -58522.79, -29808.53, -13040.92, -17449.96, -8255.71, 0.000, 0.000, 0.000, 23:23:29.967, 1550615009967
31, -17222.67, -66218.38, -83698.18, -58525.45, -29818.19, -13043.76, -17467.08, -8239.79, 0.000, 0.000, 0.000, 23:23:30.024, 1550615010024
32, -17225.84, -66229.36, -83692.48, -58519.03, -29807.57, -13033.26, -17450.63, -8230.11, 0.000, 0.000, 0.000, 23:23:30.024, 1550615010024
33, -17231.90, -66230.20, -83691.77, -58524.11, -29807.10, -13027.96, -17449.04, -8241.33, 0.000, 0.000, 0.000, 23:23:30.024, 1550615010024
34, -17236.26, -66248.06, -83697.76, -58529.07, -29815.57, -13034.91, -17457.74, -8258.12, 0.000, 0.000, 0.000, 23:23:30.024, 1550615010024
35, -17251.43, -66262.99, -83705.88, -58531.86, -29824.36, -13041.06, -17466.48, -8262.57, 0.000, 0.000, 0.000, 23:23:30.024, 1550615010024
36, -17260.53, -66272.65, -83706.32, -58536.96, -29817.92, -13038.53, -17459.75, -8263.80, 0.000, 0.000, 0.000, 23:23:30.024, 1550615010024
37, -17268.71, -66287.02, -83708.46, -58542.05, -29809.49, -13035.80, -17451.68, -8264.54, 0.068, 0.000, 0.996, 23:23:30.024, 1550615010024
38, -17291.17, -66315.61, -83714.73, -58547.80, -29806.07, -13033.44, -17450.28, -8259.08, 0.000, 0.000, 0.000, 23:23:30.024, 1550615010024
39, -17318.33, -66344.13, -83720.06, -58552.89, -29806.18, -13035.34, -17455.95, -8258.68, 0.000, 0.000, 0.000, 23:23:30.024, 1550615010024
40, -17337.40, -66360.74, -83723.51, -58549.88, -29803.57, -13031.94, -17460.73, -8255.66, 0.000, 0.000, 0.000, 23:23:30.025, 1550615010025
41, -17359.73, -66391.98, -83732.56, -58553.95, -29825.74, -13040.50, -17479.24, -8263.10, 0.000, 0.000, 0.000, 23:23:30.025, 1550615010025
42, -17374.88, -66405.98, -83728.83, -58550.53, -29824.54, -13036.12, -17461.83, -8257.45, 0.000, 0.000, 0.000, 23:23:30.025, 1550615010025
43, -17387.78, -66419.52, -83724.91, -58547.24, -29804.42, -13033.88, -17428.88, -8245.49, 0.000, 0.000, 0.000, 23:23:30.025, 1550615010025
44, -17403.60, -66438.57, -83728.11, -58553.84, -29809.27, -13041.73, -17435.90, -8252.38, 0.000, 0.000, 0.000, 23:23:30.028, 1550615010028
45, -17412.54, -66448.78, -83731.09, -58559.13, -29816.96, -13042.82, -17439.54, -8263.42, 0.000, 0.000, 0.000, 23:23:30.029, 1550615010029
46, -17415.43, -66452.94, -83732.90, -58555.40, -29822.68, -13042.11, -17448.24, -8270.91, 0.000, 0.000, 0.000, 23:23:30.084, 1550615010084
47, -17413.15, -66447.98, -83733.30, -58553.10, -29823.15, -13045.62, -17453.94, -8271.73, 0.068, 0.000, 0.978, 23:23:30.084, 1550615010084
48, -17414.67, -66453.32, -83735.27, -58556.47, -29823.84, -13049.15, -17443.46, -8271.69, 0.000, 0.000, 0.000, 23:23:30.084, 1550615010084
49, -17409.44, -66452.61, -83733.21, -58557.37, -29812.29, -13048.63, -17446.97, -8259.10, 0.000, 0.000, 0.000, 23:23:30.084, 1550615010084
50, -17410.55, -66457.37, -83744.98, -58556.34, -29820.65, -13060.33, -17460.45, -8259.10, 0.000, 0.000, 0.000, 23:23:30.085, 1550615010085
51, -17417.62, -66464.07, -83757.33, -58556.23, -29824.98, -13074.54, -17467.93, -8270.03, 0.000, 0.000, 0.000, 23:23:30.085, 1550615010085
52, -17414.94, -66461.70, -83751.78, -58555.73, -29828.54, -13079.48, -17464.98, -8276.31, 0.000, 0.000, 0.000, 23:23:30.085, 1550615010085
53, -17408.59, -66450.08, -83745.99, -58545.86, -29830.73, -13081.47, -17454.28, -8267.96, 0.000, 0.000, 0.000, 23:23:30.085, 1550615010085
54, -17403.04, -66442.37, -83745.37, -58538.37, -29839.85, -13085.92, -17468.96, -8254.41, 0.000, 0.000, 0.000, 23:23:30.085, 1550615010085
55, -17396.38, -66444.89, -83746.71, -58545.25, -29840.31, -13086.03, -17476.63, -8259.10, 0.000, 0.000, 0.000, 23:23:30.085, 1550615010085
56, -17398.51, -66450.37, -83751.60, -58555.55, -29833.70, -13079.21, -17461.58, -8271.04, 0.000, 0.000, 0.000, 23:23:30.085, 1550615010085
57, -17388.40, -66435.38, -83747.98, -58554.26, -29830.37, -13072.66, -17459.80, -8265.16, 0.064, -0.004, 0.996, 23:23:30.085, 1550615010085
58, -17371.57, -66420.24, -83733.01, -58537.05, -29825.21, -13061.29, -17446.81, -8259.75, 0.000, 0.000, 0.000, 23:23:30.085, 1550615010085
59, -17363.35, -66415.05, -83725.02, -58533.98, -29824.85, -13053.53, -17454.59, -8261.14, 0.000, 0.000, 0.000, 23:23:30.085, 1550615010085
60, -17353.16, -66409.76, -83729.38, -58537.45, -29830.73, -13065.15, -17473.45, -8266.84, 0.000, 0.000, 0.000, 23:23:30.085, 1550615010085
61, -17343.19, -66399.68, -83727.87, -58541.88, -29825.07, -13069.82, -17473.61, -8266.19, 0.000, 0.000, 0.000, 23:23:30.144, 1550615010144
62, -17331.61, -66389.41, -83719.22, -58534.95, -29814.86, -13065.73, -17460.80, -8262.93, 0.000, 0.000, 0.000, 23:23:30.144, 1550615010144
63, -17323.99, -66380.59, -83720.34, -58525.20, -29807.66, -13068.71, -17446.12, -8260.38, 0.000, 0.000, 0.000, 23:23:30.144, 1550615010144
64, -17315.94, -66374.48, -83724.54, -58528.96, -29829.16, -13072.22, -17460.82, -8262.21, 0.000, 0.000, 0.000, 23:23:30.144, 1550615010144
65, -17309.53, -66369.93, -83728.18, -58528.11, -29823.87, -13064.46, -17455.19, -8251.30, 0.000, 0.000, 0.000, 23:23:30.144, 1550615010144
66, -17312.07, -66372.12, -83734.82, -58534.88, -29815.33, -13059.95, -17448.93, -8248.04, 0.000, 0.000, 0.000, 23:23:30.144, 1550615010144
67, -17317.71, -66371.96, -83734.41, -58543.78, -29826.21, -13055.21, -17459.04, -8254.03, 0.058, -0.004, 0.978, 23:23:30.144, 1550615010144
68, -17311.92, -66364.27, -83723.28, -58535.46, -29824.98, -13047.43, -17458.12, -8260.78, 0.000, 0.000, 0.000, 23:23:30.144, 1550615010144
69, -17302.57, -66352.98, -83714.86, -58528.67, -29825.38, -13045.15, -17465.74, -8265.54, 0.000, 0.000, 0.000, 23:23:30.144, 1550615010144
70, -17294.46, -66346.48, -83715.33, -58529.54, -29814.74, -13043.36, -17452.51, -8263.06, 0.000, 0.000, 0.000, 23:23:30.144, 1550615010144
71, -17295.40, -66350.57, -83717.90, -58535.73, -29811.44, -13044.57, -17448.08, -8265.09, 0.000, 0.000, 0.000, 23:23:30.145, 1550615010145
72, -17298.21, -66352.07, -83717.83, -58534.66, -29818.77, -13040.05, -17456.18, -8270.30, 0.000, 0.000, 0.000, 23:23:30.145, 1550615010145
73, -17290.79, -66349.05, -83712.17, -58530.19, -29820.40, -13034.84, -17457.54, -8273.65, 0.000, 0.000, 0.000, 23:23:30.145, 1550615010145
74, -17288.94, -66349.92, -83716.82, -58537.65, -29826.61, -13044.12, -17470.41, -8275.78, 0.000, 0.000, 0.000, 23:23:30.145, 1550615010145
75, -17293.99, -66351.33, -83722.41, -58539.33, -29833.54, -13051.83, -17481.32, -8280.65, 0.000, 0.000, 0.000, 23:23:30.145, 1550615010145
76, -17295.24, -66351.77, -83728.56, -58542.52, -29829.16, -13054.11, -17471.82, -8278.77, 0.062, -0.002, 0.986, 23:23:30.203, 1550615010203
77, -17287.44, -66348.18, -83720.83, -58536.11, -29794.74, -13038.64, -17436.57, -8256.11, 0.000, 0.000, 0.000, 23:23:30.203, 1550615010203
78, -17291.26, -66352.07, -83726.97, -58535.51, -29805.65, -13043.16, -17444.13, -8255.48, 0.000, 0.000, 0.000, 23:23:30.203, 1550615010203
79, -17295.58, -66352.11, -83737.95, -58541.00, -29831.24, -13063.92, -17480.38, -8272.49, 0.000, 0.000, 0.000, 23:23:30.203, 1550615010203
80, -17288.27, -66342.77, -83727.15, -58533.88, -29830.97, -13065.47, -17474.10, -8269.94, 0.000, 0.000, 0.000, 23:23:30.203, 1550615010203
81, -17277.56, -66329.78, -83707.50, -58530.16, -29826.68, -13053.64, -17453.85, -8261.54, 0.000, 0.000, 0.000, 23:23:30.204, 1550615010204
82, -17270.46, -66323.08, -83696.66, -58526.43, -29827.82, -13050.60, -17458.32, -8263.84, 0.000, 0.000, 0.000, 23:23:30.205, 1550615010205
83, -17270.28, -66326.92, -83696.08, -58527.53, -29829.77, -13053.87, -17465.50, -8270.68, 0.000, 0.000, 0.000, 23:23:30.205, 1550615010205
84, -17267.53, -66326.45, -83705.88, -58529.23, -29827.71, -13062.83, -17458.48, -8275.20, 0.000, 0.000, 0.000, 23:23:30.205, 1550615010205
85, -17263.97, -66319.84, -83710.81, -58521.47, -29824.29, -13067.52, -17464.18, -8270.50, 0.000, 0.000, 0.000, 23:23:30.205, 1550615010205
86, -17267.30, -66319.03, -83709.59, -58513.45, -29831.06, -13059.12, -17475.69, -8262.10, 0.064, -0.008, 0.990, 23:23:30.205, 1550615010205
87, -17264.89, -66316.35, -83701.16, -58509.54, -29825.03, -13044.97, -17464.94, -8247.44, 0.000, 0.000, 0.000, 23:23:30.205, 1550615010205
88, -17263.06, -66311.39, -83696.20, -58504.01, -29812.11, -13041.48, -17444.33, -8244.17, 0.000, 0.000, 0.000, 23:23:30.205, 1550615010205
89, -17265.45, -66314.36, -83702.79, -58504.04, -29811.28, -13050.67, -17442.68, -8256.09, 0.000, 0.000, 0.000, 23:23:30.210, 1550615010210
90, -17266.03, -66314.67, -83710.12, -58512.30, -29823.08, -13062.16, -17462.77, -8264.65, 0.000, 0.000, 0.000, 23:23:30.211, 1550615010211
91, -17267.39, -66311.92, -83709.59, -58510.20, -29830.73, -13061.33, -17470.93, -8268.27, 0.000, 0.000, 0.000, 23:23:30.262, 1550615010262
92, -17268.09, -66314.56, -83705.80, -58513.54, -29838.26, -13058.29, -17470.26, -8268.54, 0.000, 0.000, 0.000, 23:23:30.262, 1550615010262
93, -17260.87, -66310.67, -83695.50, -58511.14, -29837.83, -13050.18, -17468.29, -8261.70, 0.000, 0.000, 0.000, 23:23:30.263, 1550615010263
94, -17260.93, -66311.03, -83698.74, -58514.88, -29837.10, -13052.86, -17468.80, -8257.49, 0.000, 0.000, 0.000, 23:23:30.263, 1550615010263
95, -17262.34, -66312.75, -83707.84, -58514.09, -29824.38, -13059.70, -17458.37, -8252.58, 0.000, 0.000, 0.000, 23:23:30.263, 1550615010263
96, -17262.32, -66316.46, -83717.54, -58521.36, -29826.23, -13069.82, -17468.07, -8250.61, 0.064, -0.004, 0.998, 23:23:30.263, 1550615010263
97, -17257.31, -66312.02, -83717.83, -58516.02, -29816.09, -13062.67, -17454.63, -8250.48, 0.000, 0.000, 0.000, 23:23:30.263, 1550615010263
98, -17258.70, -66311.23, -83729.41, -58519.93, -29830.55, -13067.63, -17476.85, -8266.37, 0.000, 0.000, 0.000, 23:23:30.263, 1550615010263
99, -17257.20, -66310.54, -83734.55, -58521.87, -29823.73, -13068.82, -17464.09, -8274.97, 0.000, 0.000, 0.000, 23:23:30.263, 1550615010263
100, -17259.48, -66313.47, -83739.38, -58521.09, -29824.96, -13077.04, -17466.52, -8278.13, 0.000, 0.000, 0.000, 23:23:30.263, 1550615010263
101, -17256.24, -66310.56, -83739.11, -58519.08, -29832.69, -13083.97, -17467.26, -8281.90, 0.000, 0.000, 0.000, 23:23:30.263, 1550615010263
102, -17250.38, -66309.73, -83732.36, -58518.36, -29836.16, -13076.42, -17462.43, -8271.53, 0.000, 0.000, 0.000, 23:23:30.263, 1550615010263
103, -17246.29, -66310.05, -83727.60, -58517.78, -29838.37, -13068.98, -17464.49, -8260.13, 0.000, 0.000, 0.000, 23:23:30.263, 1550615010263
104, -17243.86, -66305.98, -83728.05, -58520.55, -29839.22, -13072.39, -17462.28, -8266.39, 0.000, 0.000, 0.000, 23:23:30.263, 1550615010263
105, -17248.51, -66314.78, -83732.42, -58531.26, -29839.51, -13079.06, -17454.83, -8281.28, 0.000, 0.000, 0.000, 23:23:30.264, 1550615010264
106, -17251.88, -66323.13, -83734.20, -58540.60, -29843.42, -13085.98, -17472.85, -8292.03, 0.064, -0.010, 0.996, 23:23:30.323, 1550615010323
107, -17245.76, -66316.08, -83727.82, -58528.87, -29833.50, -13076.80, -17459.64, -8283.58, 0.000, 0.000, 0.000, 23:23:30.323, 1550615010323
108, -17245.71, -66312.82, -83726.26, -58524.58, -29839.04, -13073.02, -17462.81, -8279.26, 0.000, 0.000, 0.000, 23:23:30.323, 1550615010323
109, -17249.36, -66312.75, -83733.12, -58528.42, -29850.44, -13077.63, -17481.25, -8278.01, 0.000, 0.000, 0.000, 23:23:30.323, 1550615010323
110, -17246.87, -66310.09, -83731.13, -58523.48, -29833.34, -13072.22, -17462.05, -8256.38, 0.000, 0.000, 0.000, 23:23:30.323, 1550615010323
111, -17250.45, -66314.92, -83731.73, -58523.28, -29817.32, -13074.85, -17435.46, -8249.83, 0.000, 0.000, 0.000, 23:23:30.323, 1550615010323
112, -17250.58, -66320.02, -83732.05, -58532.42, -29829.10, -13081.67, -17463.82, -8263.55, 0.000, 0.000, 0.000, 23:23:30.323, 1550615010323
113, -17249.96, -66319.99, -83728.13, -58530.28, -29830.55, -13078.72, -17459.44, -8272.83, 0.000, 0.000, 0.000, 23:23:30.323, 1550615010323
114, -17249.49, -66317.16, -83727.06, -58521.16, -29821.07, -13076.87, -17434.05, -8275.76, 0.000, 0.000, 0.000, 23:23:30.324, 1550615010324
115, -17248.73, -66314.52, -83732.18, -58524.49, -29833.79, -13087.04, -17452.58, -8278.53, 0.000, 0.000, 0.000, 23:23:30.324, 1550615010324
116, -17256.19, -66324.48, -83735.55, -58538.30, -29853.03, -13096.69, -17473.07, -8285.37, 0.066, -0.006, 0.992, 23:23:30.324, 1550615010324
117, -17250.81, -66319.34, -83722.57, -58530.90, -29838.24, -13090.37, -17467.48, -8277.88, 0.000, 0.000, 0.000, 23:23:30.324, 1550615010324
118, -17248.53, -66313.27, -83716.96, -58525.92, -29834.08, -13088.98, -17462.28, -8270.64, 0.000, 0.000, 0.000, 23:23:30.324, 1550615010324
119, -17255.70, -66313.87, -83722.19, -58525.67, -29838.42, -13095.57, -17465.18, -8258.23, 0.000, 0.000, 0.000, 23:23:30.324, 1550615010324
120, -17255.86, -66314.92, -83727.53, -58524.31, -29837.01, -13097.09, -17467.37, -8253.63, 0.000, 0.000, 0.000, 23:23:30.324, 1550615010324
121, -17254.05, -66315.48, -83734.68, -58528.91, -29839.22, -13095.53, -17472.36, -8268.11, 0.000, 0.000, 0.000, 23:23:30.383, 1550615010383
122, -17254.92, -66319.34, -83732.60, -58534.50, -29823.42, -13084.06, -17452.60, -8282.15, 0.000, 0.000, 0.000, 23:23:30.383, 1550615010383
123, -17256.33, -66321.70, -83726.05, -58531.04, -29809.49, -13077.98, -17450.77, -8285.90, 0.000, 0.000, 0.000, 23:23:30.384, 1550615010384
124, -17256.02, -66318.14, -83721.25, -58528.18, -29825.50, -13084.58, -17472.71, -8285.99, 0.000, 0.000, 0.000, 23:23:30.384, 1550615010384
125, -17246.74, -66310.20, -83715.15, -58529.65, -29824.49, -13086.19, -17469.61, -8288.05, 0.000, 0.000, 0.000, 23:23:30.384, 1550615010384
126, -17239.77, -66308.03, -83709.52, -58522.16, -29828.27, -13080.44, -17466.03, -8279.56, 0.064, -0.006, 0.998, 23:23:30.384, 1550615010384
127, -17238.02, -66306.20, -83705.11, -58520.84, -29837.92, -13073.76, -17469.65, -8260.58, 0.000, 0.000, 0.000, 23:23:30.384, 1550615010384
128, -17240.71, -66310.98, -83710.12, -58528.98, -29830.79, -13070.20, -17465.16, -8269.05, 0.000, 0.000, 0.000, 23:23:30.384, 1550615010384
129, -17240.91, -66309.33, -83711.46, -58523.59, -29821.27, -13059.65, -17458.63, -8274.66, 0.000, 0.000, 0.000, 23:23:30.384, 1550615010384
130, -17244.95, -66309.17, -83712.48, -58519.86, -29824.13, -13056.55, -17466.95, -8279.42, 0.000, 0.000, 0.000, 23:23:30.384, 1550615010384
131, -17243.70, -66311.34, -83707.73, -58523.53, -29823.64, -13062.07, -17475.24, -8291.38, 0.000, 0.000, 0.000, 23:23:30.384, 1550615010384
132, -17235.45, -66308.46, -83697.06, -58525.71, -29817.67, -13063.34, -17453.96, -8287.11, 0.000, 0.000, 0.000, 23:23:30.384, 1550615010384
133, -17227.76, -66302.58, -83685.15, -58514.09, -29814.16, -13056.39, -17438.45, -8273.10, 0.000, 0.000, 0.000, 23:23:30.384, 1550615010384
134, -17228.66, -66300.13, -83688.88, -58511.70, -29826.05, -13061.78, -17450.81, -8274.44, 0.000, 0.000, 0.000, 23:23:30.384, 1550615010384
135, -17227.25, -66298.60, -83694.59, -58513.47, -29823.46, -13058.69, -17442.70, -8274.06, 0.062, -0.004, 0.992, 23:23:30.385, 1550615010385
136, -17225.19, -66298.78, -83694.45, -58514.09, -29819.26, -13049.86, -17445.47, -8269.16, 0.000, 0.000, 0.000, 23:23:30.443, 1550615010443
137, -17222.91, -66297.77, -83685.87, -58512.42, -29805.58, -13035.31, -17430.76, -8255.33, 0.000, 0.000, 0.000, 23:23:30.443, 1550615010443
138, -17224.90, -66302.78, -83685.87, -58518.81, -29796.80, -13037.66, -17433.38, -8258.81, 0.000, 0.000, 0.000, 23:23:30.443, 1550615010443
139, -17221.93, -66300.63, -83681.89, -58518.34, -29795.48, -13044.01, -17440.13, -8264.87, 0.000, 0.000, 0.000, 23:23:30.444, 1550615010444
140, -17223.16, -66305.87, -83683.30, -58516.15, -29807.35, -13052.01, -17447.59, -8273.48, 0.000, 0.000, 0.000, 23:23:30.444, 1550615010444
141, -17226.60, -66307.81, -83688.48, -58516.11, -29809.36, -13058.69, -17464.89, -8277.68, 0.000, 0.000, 0.000, 23:23:30.444, 1550615010444
142, -17225.51, -66305.80, -83684.99, -58518.18, -29819.39, -13052.21, -17480.03, -8270.06, 0.000, 0.000, 0.000, 23:23:30.444, 1550615010444
143, -17226.67, -66306.16, -83684.64, -58518.61, -29814.48, -13040.59, -17468.02, -8261.29, 0.000, 0.000, 0.000, 23:23:30.444, 1550615010444
144, -17227.76, -66306.42, -83693.66, -58519.19, -29806.88, -13038.87, -17454.61, -8259.46, 0.000, 0.000, 0.000, 23:23:30.444, 1550615010444
145, -17226.78, -66307.66, -83705.85, -58515.66, -29813.29, -13044.79, -17460.00, -8257.18, 0.062, 0.000, 0.990, 23:23:30.444, 1550615010444
146, -17230.71, -66313.13, -83709.88, -58518.52, -29802.25, -13044.66, -17445.80, -8253.87, 0.000, 0.000, 0.000, 23:23:30.444, 1550615010444
147, -17230.67, -66313.63, -83703.75, -58515.61, -29796.60, -13043.40, -17437.69, -8256.71, 0.000, 0.000, 0.000, 23:23:30.444, 1550615010444
148, -17235.07, -66317.04, -83700.42, -58518.23, -29797.27, -13045.91, -17436.64, -8267.64, 0.000, 0.000, 0.000, 23:23:30.444, 1550615010444
149, -17241.98, -66324.04, -83706.23, -58526.30, -29808.89, -13055.68, -17448.49, -8287.96, 0.000, 0.000, 0.000, 23:23:30.444, 1550615010444
150, -17230.27, -66315.77, -83698.23, -58518.90, -29819.60, -13055.56, -17460.04, -8280.29, 0.000, 0.000, 0.000, 23:23:30.445, 1550615010445
151, -17223.07, -66310.07, -83694.79, -58515.23, -29831.33, -13056.53, -17482.84, -8279.53, 0.000, 0.000, 0.000, 23:23:30.503, 1550615010503
152, -17219.38, -66304.03, -83693.18, -58513.60, -29830.55, -13053.55, -17472.22, -8276.25, 0.000, 0.000, 0.000, 23:23:30.504, 1550615010504
153, -17219.49, -66306.54, -83696.95, -58515.50, -29813.78, -13053.93, -17432.77, -8276.02, 0.000, 0.000, 0.000, 23:23:30.504, 1550615010504
154, -17221.95, -66308.84, -83706.01, -58517.85, -29824.91, -13059.61, -17451.84, -8269.85, 0.000, 0.000, 0.000, 23:23:30.504, 1550615010504
155, -17220.72, -66304.64, -83714.25, -58518.52, -29823.78, -13066.70, -17458.86, -8255.59, 0.060, 0.002, 0.992, 23:23:30.504, 1550615010504
156, -17219.98, -66305.82, -83711.02, -58516.89, -29816.55, -13062.18, -17445.25, -8247.28, 0.000, 0.000, 0.000, 23:23:30.504, 1550615010504
157, -17223.61, -66310.34, -83705.29, -58521.63, -29820.53, -13056.97, -17448.75, -8256.82, 0.000, 0.000, 0.000, 23:23:30.504, 1550615010504
158, -17217.97, -66309.55, -83694.65, -58521.47, -29813.36, -13051.12, -17432.95, -8266.10, 0.000, 0.000, 0.000, 23:23:30.504, 1550615010504
159, -17220.50, -66310.83, -83692.98, -58517.20, -29817.16, -13050.11, -17461.18, -8274.17, 0.000, 0.000, 0.000, 23:23:30.504, 1550615010504
160, -17220.05, -66312.04, -83692.17, -58520.02, -29808.35, -13047.25, -17460.98, -8276.49, 0.000, 0.000, 0.000, 23:23:30.504, 1550615010504
161, -17217.97, -66311.56, -83694.27, -58523.28, -29812.17, -13047.70, -17457.25, -8280.96, 0.000, 0.000, 0.000, 23:23:30.504, 1550615010504
162, -17217.68, -66316.41, -83690.85, -58527.84, -29811.50, -13041.68, -17442.65, -8274.97, 0.000, 0.000, 0.000, 23:23:30.505, 1550615010505
163, -17213.10, -66315.73, -83691.50, -58527.88, -29813.87, -13036.68, -17445.87, -8249.83, 0.000, 0.000, 0.000, 23:23:30.505, 1550615010505
164, -17212.01, -66314.56, -83700.55, -58528.36, -29808.17, -13039.54, -17441.54, -8253.00, 0.000, 0.000, 0.000, 23:23:30.505, 1550615010505
165, -17223.34, -66326.45, -83717.36, -58532.42, -29827.69, -13061.51, -17470.06, -8277.12, 0.064, -0.002, 0.992, 23:23:30.505, 1550615010505
166, -17220.88, -66330.56, -83716.66, -58534.23, -29831.69, -13069.94, -17468.92, -8277.97, 0.000, 0.000, 0.000, 23:23:30.563, 1550615010563
167, -17212.68, -66321.45, -83704.09, -58526.32, -29827.31, -13065.13, -17452.44, -8269.72, 0.000, 0.000, 0.000, 23:23:30.563, 1550615010563
168, -17209.66, -66316.46, -83700.15, -58523.01, -29829.36, -13066.07, -17452.44, -8269.68, 0.000, 0.000, 0.000, 23:23:30.564, 1550615010564
169, -17201.88, -66306.70, -83696.46, -58513.51, -29817.61, -13065.31, -17445.56, -8266.97, 0.000, 0.000, 0.000, 23:23:30.564, 1550615010564
170, -17205.72, -66309.04, -83702.01, -58515.34, -29831.91, -13073.36, -17461.09, -8268.54, 0.000, 0.000, 0.000, 23:23:30.564, 1550615010564
171, -17216.59, -66322.85, -83706.77, -58527.41, -29831.96, -13075.81, -17472.18, -8276.18, 0.000, 0.000, 0.000, 23:23:30.564, 1550615010564
172, -17214.93, -66324.40, -83700.46, -58528.00, -29819.01, -13065.80, -17443.50, -8273.43, 0.000, 0.000, 0.000, 23:23:30.564, 1550615010564
173, -17209.66, -66319.19, -83696.93, -58523.86, -29820.09, -13059.61, -17439.66, -8270.06, 0.000, 0.000, 0.000, 23:23:30.564, 1550615010564
174, -17205.66, -66318.88, -83698.92, -58526.03, -29811.04, -13058.78, -17432.08, -8282.39, 0.000, 0.000, 0.000, 23:23:30.564, 1550615010564
175, -17213.73, -66325.89, -83713.25, -58533.00, -29814.66, -13067.17, -17443.75, -8296.32, 0.064, 0.000, 0.986, 23:23:30.564, 1550615010564
176, -17215.47, -66327.26, -83715.80, -58535.35, -29828.87, -13068.82, -17454.41, -8295.98, 0.000, 0.000, 0.000, 23:23:30.564, 1550615010564
177, -17207.11, -66319.16, -83706.85, -58526.36, -29826.97, -13063.61, -17453.74, -8288.05, 0.000, 0.000, 0.000, 23:23:30.564, 1550615010564
178, -17203.69, -66311.61, -83698.27, -58518.07, -29826.93, -13056.55, -17468.25, -8277.72, 0.000, 0.000, 0.000, 23:23:30.564, 1550615010564
179, -17210.55, -66316.82, -83702.07, -58521.09, -29824.20, -13056.48, -17457.74, -8273.25, 0.000, 0.000, 0.000, 23:23:30.564, 1550615010564
180, -17213.95, -66322.23, -83705.70, -58529.38, -29814.28, -13053.35, -17440.71, -8268.94, 0.000, 0.000, 0.000, 23:23:30.564, 1550615010564
181, -17215.63, -66325.94, -83713.80, -58535.13, -29816.96, -13061.58, -17456.24, -8260.67, 0.000, 0.000, 0.000, 23:23:30.623, 1550615010623
182, -17213.50, -66324.73, -83714.70, -58532.71, -29808.64, -13069.60, -17455.42, -8256.04, 0.000, 0.000, 0.000, 23:23:30.623, 1550615010623
183, -17214.08, -66324.69, -83713.70, -58533.47, -29812.98, -13072.93, -17435.03, -8263.01, 0.000, 0.000, 0.000, 23:23:30.624, 1550615010624
184, -17212.90, -66323.46, -83709.11, -58530.52, -29823.02, -13077.94, -17441.31, -8262.93, 0.000, 0.000, 0.000, 23:23:30.624, 1550615010624
185, -17209.03, -66318.34, -83703.63, -58521.58, -29812.73, -13071.21, -17440.60, -8254.37, 0.070, 0.000, 1.042, 23:23:30.624, 1550615010624
186, -17212.61, -66323.77, -83711.35, -58523.66, -29811.62, -13069.98, -17437.78, -8261.25, 0.000, 0.000, 0.000, 23:23:30.624, 1550615010624
187, -17216.56, -66324.10, -83717.70, -58523.10, -29823.62, -13075.48, -17462.03, -8270.46, 0.000, 0.000, 0.000, 23:23:30.624, 1550615010624
188, -17215.58, -66315.59, -83713.41, -58515.95, -29837.12, -13077.25, -17485.50, -8267.84, 0.000, 0.000, 0.000, 23:23:30.624, 1550615010624
189, -17215.45, -66314.09, -83708.15, -58516.48, -29824.11, -13071.10, -17449.11, -8265.81, 0.000, 0.000, 0.000, 23:23:30.624, 1550615010624
190, -17214.11, -66314.47, -83706.48, -58515.88, -29818.12, -13064.01, -17446.09, -8258.79, 0.000, 0.000, 0.000, 23:23:30.624, 1550615010624
191, -17214.84, -66316.69, -83708.53, -58517.63, -29820.87, -13060.53, -17442.07, -8252.06, 0.000, 0.000, 0.000, 23:23:30.624, 1550615010624
192, -17217.26, -66326.84, -83708.87, -58526.30, -29822.46, -13065.35, -17453.07, -8265.83, 0.000, 0.000, 0.000, 23:23:30.624, 1550615010624
193, -17210.22, -66324.89, -83696.28, -58523.14, -29817.25, -13063.03, -17444.96, -8272.11, 0.000, 0.000, 0.000, 23:23:30.625, 1550615010625
194, -17210.78, -66324.69, -83695.68, -58520.75, -29820.36, -13063.97, -17450.70, -8272.18, 0.062, 0.002, 1.006, 23:23:30.625, 1550615010625
195, -17211.96, -66327.21, -83703.34, -58518.56, -29832.63, -13066.36, -17466.03, -8269.97, 0.000, 0.000, 0.000, 23:23:30.625, 1550615010625
196, -17213.28, -66325.71, -83710.66, -58519.52, -29833.79, -13067.77, -17463.22, -8273.65, 0.000, 0.000, 0.000, 23:23:30.683, 1550615010683
197, -17212.54, -66325.02, -83712.55, -58519.26, -29825.65, -13064.86, -17463.24, -8265.34, 0.000, 0.000, 0.000, 23:23:30.683, 1550615010683
198, -17212.25, -66324.51, -83715.86, -58514.88, -29829.01, -13074.65, -17470.10, -8248.84, 0.000, 0.000, 0.000, 23:23:30.683, 1550615010683
199, -17216.19, -66325.23, -83718.27, -58516.78, -29829.45, -13082.25, -17454.97, -8249.89, 0.000, 0.000, 0.000, 23:23:30.683, 1550615010683
200, -17220.03, -66327.97, -83719.30, -58525.29, -29828.27, -13082.48, -17440.28, -8265.14, 0.000, 0.000, 0.000, 23:23:30.683, 1550615010683
201, -17217.10, -66328.04, -83716.20, -58526.14, -29835.38, -13084.26, -17456.33, -8273.03, 0.000, 0.000, 0.000, 23:23:30.683, 1550615010683
202, -17214.53, -66326.74, -83714.32, -58524.84, -29828.00, -13081.29, -17453.56, -8276.67, 0.000, 0.000, 0.000, 23:23:30.683, 1550615010683
203, -17217.12, -66333.80, -83716.35, -58535.30, -29851.36, -13087.21, -17480.99, -8286.31, 0.000, 0.000, 0.000, 23:23:30.683, 1550615010683
204, -17212.90, -66335.69, -83711.86, -58535.24, -29831.71, -13081.89, -17454.97, -8284.14, 0.062, 0.000, 0.990, 23:23:30.683, 1550615010683
205, -17210.04, -66332.09, -83707.59, -58531.55, -29817.27, -13075.14, -17434.23, -8277.16, 0.000, 0.000, 0.000, 23:23:30.683, 1550615010683
206, -17203.82, -66325.78, -83699.21, -58523.86, -29809.63, -13073.49, -17422.38, -8259.21, 0.000, 0.000, 0.000, 23:23:30.683, 1550615010683
207, -17207.31, -66329.00, -83701.47, -58532.09, -29806.03, -13078.38, -17424.64, -8263.42, 0.000, 0.000, 0.000, 23:23:30.684, 1550615010684
208, -17207.47, -66331.48, -83704.28, -58534.55, -29825.41, -13084.51, -17457.29, -8257.78, 0.000, 0.000, 0.000, 23:23:30.684, 1550615010684
209, -17212.79, -66335.77, -83706.14, -58534.48, -29839.80, -13090.86, -17477.81, -8268.42, 0.000, 0.000, 0.000, 23:23:30.684, 1550615010684
210, -17221.33, -66343.69, -83714.73, -58541.14, -29846.87, -13093.56, -17470.12, -8284.72, 0.000, 0.000, 0.000, 23:23:30.684, 1550615010684
211, -17216.88, -66340.40, -83709.11, -58538.28, -29840.47, -13091.75, -17468.58, -8287.85, 0.000, 0.000, 0.000, 23:23:30.742, 1550615010742
212, -17204.54, -66325.13, -83689.13, -58522.21, -29811.06, -13073.80, -17430.78, -8268.83, 0.000, 0.000, 0.000, 23:23:30.743, 1550615010743
213, -17210.46, -66328.20, -83691.99, -58525.49, -29812.89, -13076.89, -17429.62, -8271.11, 0.000, 0.000, 0.000, 23:23:30.743, 1550615010743
214, -17212.61, -66329.73, -83701.91, -58524.15, -29824.29, -13088.89, -17454.72, -8276.20, 0.066, -0.006, 0.986, 23:23:30.743, 1550615010743
215, -17212.09, -66329.94, -83711.05, -58524.35, -29816.47, -13094.79, -17454.41, -8275.31, 0.000, 0.000, 0.000, 23:23:30.743, 1550615010743
216, -17214.51, -66330.84, -83722.10, -58523.26, -29818.50, -13099.28, -17456.31, -8268.89, 0.000, 0.000, 0.000, 23:23:30.743, 1550615010743
217, -17214.98, -66334.09, -83729.21, -58527.75, -29819.55, -13102.70, -17457.99, -8271.80, 0.000, 0.000, 0.000, 23:23:30.743, 1550615010743
218, -17214.62, -66334.95, -83727.82, -58525.80, -29824.85, -13102.35, -17475.80, -8262.77, 0.000, 0.000, 0.000, 23:23:30.743, 1550615010743
219, -17216.70, -66335.93, -83727.27, -58523.93, -29825.43, -13098.50, -17476.40, -8253.65, 0.000, 0.000, 0.000, 23:23:30.743, 1550615010743
220, -17218.26, -66341.05, -83723.95, -58531.33, -29833.52, -13097.54, -17462.34, -8265.36, 0.000, 0.000, 0.000, 23:23:30.743, 1550615010743
221, -17217.03, -66341.77, -83717.96, -58527.64, -29838.55, -13095.89, -17463.19, -8265.83, 0.000, 0.000, 0.000, 23:23:30.743, 1550615010743
222, -17219.92, -66338.66, -83721.74, -58521.76, -29839.24, -13098.66, -17460.22, -8275.93, 0.000, 0.000, 0.000, 23:23:30.743, 1550615010743
223, -17221.17, -66341.98, -83730.75, -58528.53, -29856.41, -13108.00, -17479.82, -8288.70, 0.000, 0.000, 0.000, 23:23:30.743, 1550615010743
224, -17220.19, -66348.70, -83732.00, -58534.75, -29827.26, -13100.51, -17448.04, -8285.66, 0.068, 0.000, 0.996, 23:23:30.744, 1550615010744
225, -17219.96, -66347.09, -83729.84, -58537.41, -29821.70, -13092.67, -17429.00, -8284.03, 0.000, 0.000, 0.000, 23:23:30.744, 1550615010744
226, -17217.26, -66342.68, -83725.88, -58537.94, -29831.13, -13089.74, -17447.19, -8278.44, 0.000, 0.000, 0.000, 23:23:30.803, 1550615010803
227, -17217.03, -66341.31, -83724.09, -58535.73, -29838.82, -13091.21, -17457.16, -8272.98, 0.000, 0.000, 0.000, 23:23:30.803, 1550615010803
228, -17214.29, -66342.08, -83718.03, -58535.08, -29845.57, -13091.28, -17466.72, -8274.44, 0.000, 0.000, 0.000, 23:23:30.803, 1550615010803
229, -17214.62, -66341.74, -83719.17, -58535.17, -29843.96, -13091.46, -17462.95, -8277.30, 0.000, 0.000, 0.000, 23:23:30.803, 1550615010803
230, -17212.38, -66339.95, -83719.06, -58533.36, -29824.87, -13086.30, -17437.02, -8269.03, 0.000, 0.000, 0.000, 23:23:30.803, 1550615010803
231, -17209.52, -66339.06, -83718.37, -58533.43, -29826.46, -13088.71, -17450.88, -8274.08, 0.000, 0.000, 0.000, 23:23:30.803, 1550615010803
232, -17213.99, -66343.30, -83721.97, -58545.72, -29833.90, -13092.96, -17449.60, -8284.00, 0.000, 0.000, 0.000, 23:23:30.803, 1550615010803
233, -17215.11, -66342.19, -83721.61, -58540.04, -29831.35, -13092.00, -17462.39, -8284.61, 0.000, 0.000, 0.000, 23:23:30.804, 1550615010804
234, -17216.68, -66342.14, -83714.23, -58535.91, -29828.69, -13088.85, -17463.04, -8280.87, 0.070, -0.010, 0.982, 23:23:30.804, 1550615010804
235, -17219.74, -66346.44, -83706.48, -58542.19, -29839.00, -13085.18, -17445.31, -8280.56, 0.000, 0.000, 0.000, 23:23:30.804, 1550615010804
236, -17213.79, -66344.29, -83699.66, -58540.60, -29835.51, -13084.33, -17444.24, -8286.26, 0.000, 0.000, 0.000, 23:23:30.804, 1550615010804
237, -17217.26, -66349.85, -83702.61, -58543.80, -29844.47, -13091.06, -17468.13, -8291.07, 0.000, 0.000, 0.000, 23:23:30.804, 1550615010804
238, -17214.89, -66344.13, -83702.50, -58540.71, -29833.52, -13087.75, -17441.22, -8284.81, 0.000, 0.000, 0.000, 23:23:30.804, 1550615010804
239, -17208.70, -66336.38, -83697.94, -58525.71, -29822.99, -13080.93, -17425.31, -8274.84, 0.000, 0.000, 0.000, 23:23:30.804, 1550615010804
240, -17211.42, -66337.88, -83702.48, -58524.26, -29825.85, -13078.68, -17425.96, -8265.09, 0.000, 0.000, 0.000, 23:23:30.804, 1550615010804
241, -17207.13, -66334.23, -83706.27, -58523.28, -29823.62, -13079.37, -17443.61, -8254.54, 0.000, 0.000, 0.000, 23:23:30.864, 1550615010864
242, -17210.55, -66339.88, -83715.38, -58525.22, -29823.28, -13083.64, -17452.17, -8257.65, 0.000, 0.000, 0.000, 23:23:30.864, 1550615010864
243, -17215.45, -66345.02, -83721.98, -58528.64, -29832.34, -13093.09, -17457.23, -8268.78, 0.000, 0.000, 0.000, 23:23:30.866, 1550615010866
244, -17216.21, -66348.49, -83726.44, -58529.25, -29836.63, -13100.33, -17465.41, -8284.90, 0.056, 0.008, 0.986, 23:23:30.866, 1550615010866
245, -17219.83, -66354.99, -83728.38, -58536.00, -29836.38, -13103.49, -17466.28, -8292.85, 0.000, 0.000, 0.000, 23:23:30.866, 1550615010866
246, -17227.67, -66358.86, -83729.21, -58541.50, -29855.92, -13109.95, -17493.50, -8294.11, 0.000, 0.000, 0.000, 23:23:30.866, 1550615010866
247, -17221.73, -66354.44, -83725.38, -58536.64, -29848.18, -13109.25, -17498.31, -8290.33, 0.000, 0.000, 0.000, 23:23:30.867, 1550615010867
248, -17218.33, -66349.97, -83722.52, -58532.54, -29833.03, -13106.24, -17449.38, -8283.91, 0.000, 0.000, 0.000, 23:23:30.867, 1550615010867
249, -17210.87, -66341.90, -83713.65, -58522.03, -29802.27, -13089.58, -17394.57, -8267.31, 0.000, 0.000, 0.000, 23:23:30.867, 1550615010867
250, -17211.56, -66344.58, -83716.20, -58524.33, -29820.27, -13092.44, -17424.88, -8269.05, 0.000, 0.000, 0.000, 23:23:30.867, 1550615010867
251, -17214.24, -66346.21, -83720.04, -58524.46, -29830.21, -13101.27, -17449.25, -8273.97, 0.000, 0.000, 0.000, 23:23:30.867, 1550615010867
252, -17216.41, -66350.46, -83723.73, -58526.63, -29837.41, -13106.95, -17453.94, -8266.26, 0.000, 0.000, 0.000, 23:23:30.869, 1550615010869
253, -17215.29, -66351.69, -83721.41, -58530.07, -29836.63, -13105.92, -17452.33, -8258.34, 0.060, -0.004, 0.984, 23:23:30.869, 1550615010869
254, -17218.04, -66358.37, -83721.25, -58535.80, -29833.01, -13101.92, -17441.80, -8274.48, 0.000, 0.000, 0.000, 23:23:30.870, 1550615010870
255, -17214.98, -66354.44, -83717.09, -58533.20, -29834.55, -13094.52, -17444.75, -8282.01, 0.000, 0.000, 0.000, 23:23:30.870, 1550615010870
0, -17210.17, -66349.85, -83715.08, -58528.78, -29823.87, -13085.27, -17442.52, -8272.09, 0.000, 0.000, 0.000, 23:23:30.923, 1550615010923
1, -17218.76, -66358.93, -83723.02, -58541.61, -29837.03, -13099.26, -17466.19, -8280.67, 0.000, 0.000, 0.000, 23:23:30.923, 1550615010923
2, -17220.63, -66359.89, -83720.24, -58535.24, -29843.40, -13104.25, -17478.93, -8280.29, 0.000, 0.000, 0.000, 23:23:30.924, 1550615010924
3, -17224.28, -66366.71, -83717.59, -58539.38, -29859.76, -13105.97, -17488.88, -8285.21, 0.000, 0.000, 0.000, 23:23:30.924, 1550615010924
4, -17216.14, -66360.78, -83708.20, -58535.55, -29837.95, -13094.66, -17454.19, -8281.46, 0.000, 0.000, 0.000, 23:23:30.924, 1550615010924
5, -17209.21, -66352.41, -83705.00, -58529.05, -29818.84, -13085.36, -17444.80, -8271.75, 0.000, 0.000, 0.000, 23:23:30.924, 1550615010924
6, -17211.38, -66353.14, -83711.35, -58535.17, -29842.13, -13090.57, -17470.03, -8276.25, 0.000, 0.000, 0.000, 23:23:30.924, 1550615010924
7, -17210.17, -66349.92, -83712.66, -58527.55, -29862.47, -13095.69, -17496.32, -8284.05, 0.066, 0.000, 0.992, 23:23:30.924, 1550615010924
8, -17207.45, -66342.68, -83707.13, -58519.32, -29828.42, -13084.51, -17435.63, -8266.48, 0.000, 0.000, 0.000, 23:23:30.924, 1550615010924
9, -17203.91, -66340.69, -83699.57, -58517.78, -29820.69, -13077.94, -17427.21, -8252.42, 0.000, 0.000, 0.000, 23:23:30.924, 1550615010924
10, -17203.87, -66340.80, -83702.70, -58520.96, -29836.00, -13086.03, -17444.69, -8264.42, 0.000, 0.000, 0.000, 23:23:30.924, 1550615010924
11, -17205.95, -66346.95, -83703.23, -58528.84, -29845.34, -13091.17, -17453.65, -8270.99, 0.000, 0.000, 0.000, 23:23:30.924, 1550615010924
12, -17209.48, -66353.09, -83704.89, -58536.18, -29849.32, -13098.48, -17457.54, -8284.14, 0.000, 0.000, 0.000, 23:23:30.924, 1550615010924
13, -17209.48, -66357.95, -83704.82, -58538.93, -29852.63, -13103.84, -17475.06, -8288.32, 0.000, 0.000, 0.000, 23:23:30.924, 1550615010924
14, -17209.48, -66360.13, -83703.88, -58542.66, -29852.94, -13098.32, -17473.10, -8294.42, 0.000, 0.000, 0.000, 23:23:30.924, 1550615010924
15, -17204.94, -66357.25, -83699.97, -58545.34, -29845.72, -13086.61, -17447.90, -8288.45, 0.000, 0.000, 0.000, 23:23:30.982, 1550615010982
16, -17198.77, -66351.93, -83693.65, -58533.29, -29838.26, -13079.95, -17451.10, -8278.01, 0.000, 0.000, 0.000, 23:23:30.983, 1550615010983
17, -17200.87, -66354.21, -83692.05, -58527.30, -29838.26, -13077.36, -17435.46, -8271.22, 0.072, -0.002, 0.990, 23:23:30.983, 1550615010983
18, -17207.36, -66356.60, -83699.37, -58533.88, -29843.33, -13086.63, -17447.79, -8280.34, 0.000, 0.000, 0.000, 23:23:30.983, 1550615010983
19, -17214.55, -66362.82, -83701.52, -58534.68, -29854.42, -13092.11, -17469.41, -8287.71, 0.000, 0.000, 0.000, 23:23:30.983, 1550615010983
20, -17219.47, -66365.50, -83704.51, -58538.75, -29864.41, -13097.81, -17484.67, -8292.03, 0.000, 0.000, 0.000, 23:23:30.984, 1550615010984
21, -17212.12, -66358.20, -83699.91, -58529.02, -29850.84, -13098.70, -17469.43, -8288.05, 0.000, 0.000, 0.000, 23:23:30.984, 1550615010984
22, -17214.62, -66367.69, -83705.91, -58535.95, -29860.88, -13104.42, -17473.41, -8288.76, 0.000, 0.000, 0.000, 23:23:30.984, 1550615010984
23, -17215.63, -66366.73, -83707.59, -58535.66, -29843.76, -13099.17, -17439.99, -8289.19, 0.000, 0.000, 0.000, 23:23:30.984, 1550615010984
24, -17203.36, -66355.33, -83697.42, -58524.33, -29826.08, -13081.83, -17420.64, -8277.43, 0.000, 0.000, 0.000, 23:23:30.984, 1550615010984
25, -17201.83, -66360.05, -83693.76, -58532.15, -29834.01, -13080.22, -17434.29, -8279.29, 0.000, 0.000, 0.000, 23:23:30.984, 1550615010984
26, -17204.54, -66363.65, -83690.16, -58538.77, -29831.84, -13083.30, -17440.71, -8276.11, 0.000, 0.000, 0.000, 23:23:30.984, 1550615010984
27, -17207.06, -66365.55, -83688.33, -58540.18, -29839.27, -13085.49, -17452.82, -8271.75, 0.060, 0.006, 0.988, 23:23:30.984, 1550615010984
28, -17209.52, -66370.04, -83693.22, -58547.11, -29865.13, -13097.88, -17504.34, -8293.97, 0.000, 0.000, 0.000, 23:23:30.984, 1550615010984
29, -17208.36, -66370.13, -83692.44, -58546.39, -29848.00, -13096.87, -17469.63, -8305.46, 0.000, 0.000, 0.000, 23:23:30.984, 1550615010984
30, -17203.00, -66363.91, -83684.19, -58537.18, -29835.40, -13088.89, -17460.78, -8305.37, 0.000, 0.000, 0.000, 23:23:31.042, 1550615011042
31, -17204.07, -66370.17, -83690.12, -58541.65, -29838.82, -13091.68, -17473.95, -8291.69, 0.000, 0.000, 0.000, 23:23:31.043, 1550615011043
32, -17196.89, -66366.33, -83690.38, -58535.91, -29810.88, -13085.65, -17438.65, -8281.12, 0.000, 0.000, 0.000, 23:23:31.043, 1550615011043
33, -17199.02, -66363.80, -83695.77, -58532.00, -29832.63, -13089.32, -17444.40, -8287.67, 0.000, 0.000, 0.000, 23:23:31.044, 1550615011044
34, -17199.78, -66364.38, -83696.82, -58534.70, -29839.78, -13089.18, -17446.79, -8288.03, 0.000, 0.000, 0.000, 23:23:31.044, 1550615011044
35, -17206.08, -66370.40, -83692.91, -58538.03, -29841.63, -13089.76, -17452.69, -8289.30, 0.000, 0.000, 0.000, 23:23:31.044, 1550615011044
36, -17211.13, -66378.80, -83689.40, -58541.38, -29842.30, -13091.10, -17459.62, -8292.52, 0.000, 0.000, 0.000, 23:23:31.044, 1550615011044
37, -17210.06, -66379.11, -83688.66, -58545.65, -29839.00, -13096.62, -17451.55, -8303.49, 0.058, -0.002, 0.992, 23:23:31.044, 1550615011044
38, -17207.31, -66371.83, -83687.32, -58538.81, -29828.56, -13096.94, -17422.80, -8304.37, 0.000, 0.000, 0.000, 23:23:31.044, 1550615011044
39, -17214.73, -66376.34, -83695.10, -58541.99, -29840.38, -13105.68, -17431.34, -8300.36, 0.000, 0.000, 0.000, 23:23:31.044, 1550615011044
40, -17213.70, -66378.22, -83698.02, -58544.40, -29847.69, -13109.52, -17454.68, -8294.91, 0.000, 0.000, 0.000, 23:23:31.044, 1550615011044
41, -17212.18, -66375.89, -83699.05, -58542.82, -29863.74, -13113.86, -17491.67, -8294.96, 0.000, 0.000, 0.000, 23:23:31.044, 1550615011044
42, -17215.40, -66374.24, -83700.59, -58537.85, -29858.78, -13111.22, -17477.66, -8287.47, 0.000, 0.000, 0.000, 23:23:31.044, 1550615011044
43, -17206.26, -66363.18, -83694.92, -58532.87, -29839.85, -13099.13, -17431.59, -8270.95, 0.000, 0.000, 0.000, 23:23:31.046, 1550615011046
44, -17206.57, -66363.84, -83694.47, -58530.59, -29826.61, -13090.95, -17415.07, -8281.25, 0.000, 0.000, 0.000, 23:23:31.046, 1550615011046
45, -17207.94, -66365.27, -83698.01, -58535.89, -29840.00, -13096.80, -17453.25, -8295.76, 0.000, 0.000, 0.000, 23:23:31.103, 1550615011103
46, -17212.94, -66369.01, -83703.30, -58539.57, -29840.83, -13104.09, -17470.70, -8303.65, 0.000, 0.000, 0.000, 23:23:31.103, 1550615011103
47, -17211.87, -66373.55, -83699.48, -58549.12, -29851.40, -13101.59, -17465.79, -8306.60, 0.058, 0.002, 0.994, 23:23:31.103, 1550615011103
48, -17211.24, -66373.64, -83696.44, -58541.45, -29826.93, -13093.94, -17435.63, -8296.32, 0.000, 0.000, 0.000, 23:23:31.103, 1550615011103
49, -17220.52, -66382.51, -83707.13, -58554.26, -29841.25, -13100.40, -17445.76, -8291.60, 0.000, 0.000, 0.000, 23:23:31.103, 1550615011103
50, -17219.94, -66385.35, -83707.21, -58554.41, -29852.34, -13103.35, -17459.21, -8298.76, 0.000, 0.000, 0.000, 23:23:31.103, 1550615011103
51, -17213.59, -66381.02, -83698.14, -58548.63, -29853.35, -13097.05, -17469.36, -8294.82, 0.000, 0.000, 0.000, 23:23:31.103, 1550615011103
52, -17214.84, -66379.76, -83694.95, -58548.27, -29841.34, -13094.93, -17464.96, -8285.19, 0.000, 0.000, 0.000, 23:23:31.103, 1550615011103
53, -17217.08, -66384.32, -83700.95, -58557.37, -29839.55, -13107.26, -17449.43, -8297.91, 0.000, 0.000, 0.000, 23:23:31.104, 1550615011104
54, -17213.12, -66382.09, -83699.39, -58559.16, -29841.14, -13108.49, -17447.41, -8308.57, 0.000, 0.000, 0.000, 23:23:31.104, 1550615011104
55, -17212.41, -66379.11, -83697.55, -58557.63, -29823.69, -13097.63, -17417.82, -8310.27, 0.000, 0.000, 0.000, 23:23:31.104, 1550615011104
56, -17207.06, -66372.45, -83694.67, -58549.03, -29823.08, -13091.01, -17427.54, -8302.13, 0.000, 0.000, 0.000, 23:23:31.104, 1550615011104
57, -17213.46, -66377.34, -83696.20, -58553.19, -29840.94, -13095.26, -17439.99, -8300.70, 0.066, 0.002, 0.998, 23:23:31.104, 1550615011104
58, -17217.75, -66382.69, -83701.78, -58563.00, -29854.46, -13103.29, -17450.39, -8298.69, 0.000, 0.000, 0.000, 23:23:31.104, 1550615011104
59, -17214.15, -66381.48, -83699.81, -58562.57, -29850.33, -13103.26, -17454.19, -8295.83, 0.000, 0.000, 0.000, 23:23:31.104, 1550615011104
60, -17216.16, -66382.09, -83700.66, -58561.30, -29845.75, -13103.53, -17460.06, -8300.14, 0.000, 0.000, 0.000, 23:23:31.165, 1550615011165
61, -17221.21, -66386.60, -83705.31, -58564.12, -29848.72, -13109.45, -17469.21, -8312.64, 0.000, 0.000, 0.000, 23:23:31.165, 1550615011165
62, -17223.79, -66388.91, -83700.38, -58565.48, -29844.88, -13106.33, -17463.24, -8321.38, 0.000, 0.000, 0.000, 23:23:31.165, 1550615011165
63, -17223.87, -66388.57, -83697.98, -58562.66, -29847.27, -13103.82, -17449.67, -8316.86, 0.000, 0.000, 0.000, 23:23:31.165, 1550615011165
64, -17219.98, -66385.93, -83692.57, -58560.09, -29838.82, -13097.34, -17440.98, -8308.86, 0.000, 0.000, 0.000, 23:23:31.165, 1550615011165
65, -17215.58, -66383.92, -83691.01, -58559.18, -29824.07, -13092.91, -17429.96, -8309.86, 0.000, 0.000, 0.000, 23:23:31.165, 1550615011165
66, -17217.75, -66389.69, -83701.40, -58565.95, -29840.81, -13101.45, -17457.25, -8308.75, 0.062, -0.004, 0.988, 23:23:31.165, 1550615011165
67, -17223.16, -66394.05, -83711.15, -58574.84, -29866.31, -13115.18, -17484.14, -8312.70, 0.000, 0.000, 0.000, 23:23:31.165, 1550615011165
68, -17215.02, -66390.55, -83707.37, -58579.61, -29867.09, -13108.45, -17476.81, -8314.65, 0.000, 0.000, 0.000, 23:23:31.165, 1550615011165
69, -17206.15, -66381.73, -83699.86, -58564.81, -29845.81, -13094.81, -17452.22, -8316.95, 0.000, 0.000, 0.000, 23:23:31.166, 1550615011166
70, -17204.09, -66379.74, -83701.96, -58565.46, -29830.21, -13094.08, -17442.52, -8322.87, 0.000, 0.000, 0.000, 23:23:31.166, 1550615011166
71, -17199.76, -66377.10, -83698.88, -58564.07, -29837.72, -13092.69, -17439.59, -8314.33, 0.000, 0.000, 0.000, 23:23:31.166, 1550615011166
72, -17198.59, -66373.86, -83694.27, -58561.32, -29829.21, -13092.02, -17436.28, -8308.72, 0.000, 0.000, 0.000, 23:23:31.166, 1550615011166
73, -17199.02, -66376.45, -83687.86, -58561.75, -29829.01, -13085.69, -17433.82, -8301.59, 0.000, 0.000, 0.000, 23:23:31.166, 1550615011166
74, -17205.54, -66383.77, -83694.85, -58568.61, -29848.14, -13092.44, -17455.64, -8312.12, 0.000, 0.000, 0.000, 23:23:31.166, 1550615011166
75, -17208.18, -66385.20, -83694.47, -58568.79, -29849.77, -13096.54, -17455.39, -8319.90, 0.000, 0.000, 0.000, 23:23:31.223, 1550615011223
76, -17207.24, -66383.70, -83691.25, -58569.08, -29833.12, -13092.58, -17441.31, -8312.93, 0.060, -0.002, 0.992, 23:23:31.223, 1550615011223
77, -17205.61, -66381.93, -83699.05, -58568.14, -29826.39, -13092.09, -17443.05, -8308.52, 0.000, 0.000, 0.000, 23:23:31.223, 1550615011223
78, -17207.85, -66382.60, -83708.76, -58573.10, -29847.87, -13098.99, -17453.52, -8305.95, 0.000, 0.000, 0.000, 23:23:31.224, 1550615011224
79, -17207.02, -66377.95, -83713.47, -58567.27, -29847.54, -13096.47, -17461.27, -8306.33, 0.000, 0.000, 0.000, 23:23:31.224, 1550615011224
80, -17203.20, -66376.61, -83713.25, -58566.87, -29854.22, -13096.54, -17472.11, -8313.19, 0.000, 0.000, 0.000, 23:23:31.224, 1550615011224
81, -17208.29, -66384.50, -83717.83, -58575.00, -29848.90, -13105.18, -17482.64, -8322.94, 0.000, 0.000, 0.000, 23:23:31.224, 1550615011224
82, -17210.64, -66389.95, -83717.20, -58579.98, -29848.99, -13109.43, -17471.73, -8327.32, 0.000, 0.000, 0.000, 23:23:31.224, 1550615011224
83, -17212.34, -66393.59, -83716.89, -58586.85, -29859.63, -13110.88, -17483.67, -8321.35, 0.000, 0.000, 0.000, 23:23:31.224, 1550615011224
84, -17208.50, -66387.74, -83707.03, -58574.46, -29850.51, -13103.42, -17470.48, -8304.32, 0.000, 0.000, 0.000, 23:23:31.224, 1550615011224
85, -17203.24, -66383.43, -83703.08, -58578.24, -29847.20, -13104.96, -17471.55, -8301.97, 0.000, 0.000, 0.000, 23:23:31.224, 1550615011224
86, -17202.15, -66382.66, -83701.94, -58584.50, -29836.07, -13101.68, -17439.32, -8307.81, 0.054, -0.008, 0.988, 23:23:31.224, 1550615011224
87, -17204.52, -66388.03, -83702.19, -58586.96, -29843.62, -13105.45, -17463.71, -8325.06, 0.000, 0.000, 0.000, 23:23:31.224, 1550615011224
88, -17203.27, -66388.73, -83704.69, -58592.48, -29856.21, -13107.55, -17489.17, -8330.72, 0.000, 0.000, 0.000, 23:23:31.224, 1550615011224
89, -17201.66, -66385.30, -83703.52, -58581.95, -29845.84, -13095.84, -17459.97, -8315.09, 0.000, 0.000, 0.000, 23:23:31.224, 1550615011224
90, -17205.61, -66387.49, -83704.64, -58584.61, -29847.98, -13089.67, -17464.42, -8302.51, 0.000, 0.000, 0.000, 23:23:31.283, 1550615011283
91, -17201.30, -66383.83, -83703.59, -58586.29, -29840.49, -13085.49, -17452.20, -8301.24, 0.000, 0.000, 0.000, 23:23:31.284, 1550615011284
92, -17201.88, -66376.56, -83704.24, -58582.04, -29842.64, -13089.96, -17466.68, -8305.82, 0.000, 0.000, 0.000, 23:23:31.284, 1550615011284
93, -17205.34, -66371.05, -83703.95, -58580.81, -29864.81, -13101.21, -17474.79, -8320.64, 0.000, 0.000, 0.000, 23:23:31.284, 1550615011284
94, -17199.60, -66359.94, -83693.49, -58574.18, -29839.64, -13093.27, -17450.36, -8297.15, 0.000, 0.000, 0.000, 23:23:31.284, 1550615011284
95, -17204.12, -66358.93, -83693.11, -58577.80, -29840.94, -13094.77, -17448.98, -8292.27, 0.000, 0.000, 0.000, 23:23:31.284, 1550615011284
96, -17204.79, -66355.53, -83694.31, -58585.26, -29847.47, -13100.71, -17453.74, -8305.62, 0.062, 0.002, 0.992, 23:23:31.284, 1550615011284
97, -17205.66, -66352.18, -83696.20, -58590.16, -29858.31, -13107.42, -17464.11, -8316.68, 0.000, 0.000, 0.000, 23:23:31.284, 1550615011284
98, -17209.66, -66351.38, -83694.83, -58591.68, -29864.79, -13109.45, -17474.95, -8321.00, 0.000, 0.000, 0.000, 23:23:31.284, 1550615011284
99, -17210.20, -66347.69, -83692.22, -58592.61, -29862.55, -13106.88, -17475.15, -8325.29, 0.000, 0.000, 0.000, 23:23:31.284, 1550615011284
100, -17206.62, -66343.84, -83692.70, -58593.40, -29857.84, -13106.44, -17467.55, -8311.36, 0.000, 0.000, 0.000, 23:23:31.284, 1550615011284
101, -17206.98, -66344.85, -83700.95, -58600.66, -29864.99, -13112.36, -17477.61, -8307.76, 0.000, 0.000, 0.000, 23:23:31.284, 1550615011284
102, -17207.51, -66341.48, -83704.73, -58600.95, -29853.70, -13113.10, -17463.35, -8318.87, 0.000, 0.000, 0.000, 23:23:31.285, 1550615011285
103, -17203.82, -66332.42, -83700.55, -58594.22, -29851.16, -13099.17, -17454.99, -8310.09, 0.000, 0.000, 0.000, 23:23:31.285, 1550615011285
104, -17206.91, -66330.66, -83706.16, -58593.75, -29840.11, -13096.49, -17451.12, -8320.55, 0.000, 0.000, 0.000, 23:23:31.285, 1550615011285
105, -17211.76, -66332.63, -83712.13, -58598.05, -29850.91, -13109.57, -17468.45, -8326.96, 0.000, 0.000, 0.000, 23:23:31.348, 1550615011348
106, -17211.04, -66335.82, -83707.48, -58605.07, -29862.22, -13116.47, -17472.47, -8328.97, 0.062, 0.000, 0.990, 23:23:31.348, 1550615011348
107, -17212.92, -66335.59, -83706.85, -58595.07, -29870.33, -13126.71, -17495.54, -8328.93, 0.000, 0.000, 0.000, 23:23:31.348, 1550615011348
108, -17212.05, -66337.56, -83706.56, -58604.13, -29848.79, -13125.93, -17475.51, -8326.43, 0.000, 0.000, 0.000, 23:23:31.348, 1550615011348
109, -17219.83, -66347.55, -83712.45, -58605.36, -29854.96, -13124.21, -17488.94, -8333.58, 0.000, 0.000, 0.000, 23:23:31.348, 1550615011348
110, -17220.48, -66349.68, -83713.23, -58606.72, -29861.71, -13123.51, -17488.36, -8329.29, 0.000, 0.000, 0.000, 23:23:31.348, 1550615011348
111, -17213.99, -66340.69, -83710.77, -58598.52, -29849.99, -13119.71, -17470.90, -8326.23, 0.000, 0.000, 0.000, 23:23:31.348, 1550615011348
112, -17216.30, -66346.70, -83713.94, -58601.80, -29855.83, -13125.35, -17483.06, -8329.09, 0.000, 0.000, 0.000, 23:23:31.348, 1550615011348
113, -17216.95, -66352.70, -83717.27, -58607.59, -29856.68, -13127.42, -17482.10, -8325.69, 0.000, 0.000, 0.000, 23:23:31.348, 1550615011348
114, -17216.59, -66353.09, -83721.41, -58606.59, -29847.65, -13127.58, -17470.66, -8324.42, 0.000, 0.000, 0.000, 23:23:31.348, 1550615011348
115, -17221.21, -66358.35, -83726.80, -58612.87, -29859.67, -13139.27, -17485.46, -8322.31, 0.000, 0.000, 0.000, 23:23:31.348, 1550615011348
116, -17219.16, -66357.23, -83722.39, -58610.38, -29875.21, -13145.51, -17507.90, -8323.72, 0.062, -0.004, 0.998, 23:23:31.348, 1550615011348
117, -17212.05, -66353.77, -83713.96, -58604.73, -29870.76, -13137.57, -17495.25, -8310.65, 0.000, 0.000, 0.000, 23:23:31.348, 1550615011348
118, -17212.56, -66357.19, -83712.47, -58605.42, -29863.79, -13134.55, -17485.19, -8302.29, 0.000, 0.000, 0.000, 23:23:31.349, 1550615011349
119, -17219.69, -66364.16, -83714.01, -58605.07, -29859.31, -13130.22, -17483.24, -8296.54, 0.000, 0.000, 0.000, 23:23:31.349, 1550615011349
120, -17221.86, -66367.22, -83717.88, -58605.15, -29864.48, -13129.10, -17493.68, -8318.34, 0.000, 0.000, 0.000, 23:23:31.403, 1550615011403
121, -17219.67, -66368.41, -83716.24, -58610.74, -29853.12, -13122.64, -17478.84, -8338.00, 0.000, 0.000, 0.000, 23:23:31.404, 1550615011404
122, -17216.34, -66366.93, -83712.78, -58611.79, -29852.56, -13120.70, -17485.97, -8341.27, 0.000, 0.000, 0.000, 23:23:31.404, 1550615011404
123, -17220.14, -66369.05, -83715.04, -58614.41, -29861.46, -13130.06, -17494.46, -8343.21, 0.000, 0.000, 0.000, 23:23:31.404, 1550615011404
124, -17218.20, -66367.06, -83706.97, -58610.41, -29863.25, -13127.89, -17495.92, -8342.61, 0.000, 0.000, 0.000, 23:23:31.404, 1550615011404
125, -17213.46, -66363.80, -83697.83, -58609.07, -29853.06, -13118.82, -17493.08, -8325.47, 0.062, -0.006, 0.992, 23:23:31.404, 1550615011404
126, -17208.54, -66356.94, -83692.57, -58598.76, -29845.21, -13112.92, -17491.83, -8307.27, 0.000, 0.000, 0.000, 23:23:31.405, 1550615011405
127, -17217.95, -66366.28, -83703.68, -58611.79, -29881.09, -13127.63, -17523.32, -8333.87, 0.000, 0.000, 0.000, 23:23:31.405, 1550615011405
128, -17216.41, -66364.14, -83695.79, -58613.52, -29875.16, -13118.84, -17506.02, -8338.41, 0.000, 0.000, 0.000, 23:23:31.405, 1550615011405
129, -17215.04, -66365.16, -83692.95, -58613.00, -29847.47, -13108.58, -17469.25, -8341.87, 0.000, 0.000, 0.000, 23:23:31.405, 1550615011405
130, -17216.45, -66364.70, -83698.48, -58603.52, -29852.23, -13109.50, -17485.41, -8343.64, 0.000, 0.000, 0.000, 23:23:31.405, 1550615011405
131, -17220.30, -66366.73, -83710.52, -58607.46, -29857.41, -13116.61, -17498.67, -8343.33, 0.000, 0.000, 0.000, 23:23:31.405, 1550615011405
132, -17222.64, -66366.77, -83718.77, -58611.08, -29854.69, -13126.49, -17489.81, -8343.35, 0.000, 0.000, 0.000, 23:23:31.405, 1550615011405
133, -17226.51, -66367.49, -83721.27, -58611.75, -29848.72, -13127.67, -17481.72, -8332.26, 0.000, 0.000, 0.000, 23:23:31.405, 1550615011405
134, -17225.73, -66364.02, -83715.35, -58607.77, -29847.63, -13122.51, -17481.95, -8322.83, 0.000, 0.000, 0.000, 23:23:31.405, 1550615011405
135, -17224.41, -66361.16, -83708.22, -58608.44, -29843.42, -13117.14, -17469.45, -8323.05, 0.062, 0.002, 0.998, 23:23:31.463, 1550615011463
136, -17219.27, -66360.00, -83702.50, -58603.28, -29843.31, -13115.09, -17470.68, -8323.66, 0.000, 0.000, 0.000, 23:23:31.464, 1550615011464
137, -17217.12, -66360.25, -83701.60, -58602.36, -29852.41, -13116.72, -17480.79, -8321.49, 0.000, 0.000, 0.000, 23:23:31.464, 1550615011464
138, -17214.69, -66353.61, -83699.21, -58594.83, -29852.97, -13114.62, -17487.04, -8323.61, 0.000, 0.000, 0.000, 23:23:31.464, 1550615011464
139, -17219.25, -66357.39, -83705.49, -58596.30, -29861.48, -13115.27, -17497.28, -8324.33, 0.000, 0.000, 0.000, 23:23:31.464, 1550615011464
140, -17219.18, -66356.20, -83709.18, -58594.02, -29860.83, -13109.19, -17482.26, -8325.85, 0.000, 0.000, 0.000, 23:23:31.464, 1550615011464
141, -17228.08, -66360.88, -83716.91, -58607.03, -29864.34, -13117.05, -17481.90, -8344.22, 0.000, 0.000, 0.000, 23:23:31.464, 1550615011464
142, -17225.04, -66353.07, -83714.21, -58610.61, -29860.95, -13119.29, -17480.94, -8343.77, 0.000, 0.000, 0.000, 23:23:31.464, 1550615011464
143, -17223.02, -66345.25, -83712.27, -58609.31, -29866.22, -13123.65, -17485.88, -8335.79, 0.000, 0.000, 0.000, 23:23:31.464, 1550615011464
144, -17226.33, -66342.97, -83717.47, -58605.02, -29875.59, -13123.36, -17495.54, -8331.72, 0.000, 0.000, 0.000, 23:23:31.465, 1550615011465
145, -17225.68, -66339.28, -83717.38, -58607.48, -29865.37, -13116.58, -17499.56, -8318.40, 0.062, 0.004, 0.996, 23:23:31.465, 1550615011465
146, -17222.00, -66331.21, -83707.98, -58604.77, -29856.05, -13107.53, -17479.22, -8321.24, 0.000, 0.000, 0.000, 23:23:31.465, 1550615011465
147, -17223.79, -66328.82, -83709.27, -58608.60, -29861.08, -13110.13, -17478.33, -8333.76, 0.000, 0.000, 0.000, 23:23:31.465, 1550615011465
148, -17227.20, -66328.53, -83713.07, -58604.95, -29872.59, -13115.89, -17497.19, -8336.93, 0.000, 0.000, 0.000, 23:23:31.465, 1550615011465
149, -17231.00, -66329.18, -83712.84, -58602.34, -29866.11, -13108.94, -17485.97, -8334.21, 0.000, 0.000, 0.000, 23:23:31.468, 1550615011468
150, -17232.75, -66328.35, -83713.13, -58607.64, -29863.45, -13107.60, -17482.68, -8337.98, 0.000, 0.000, 0.000, 23:23:31.523, 1550615011523
151, -17233.82, -66319.91, -83711.23, -58607.05, -29858.71, -13113.46, -17492.12, -8343.95, 0.000, 0.000, 0.000, 23:23:31.523, 1550615011523
152, -17230.38, -66316.17, -83711.88, -58603.93, -29862.13, -13117.59, -17496.41, -8338.63, 0.000, 0.000, 0.000, 23:23:31.523, 1550615011523
153, -17227.76, -66308.77, -83716.18, -58602.65, -29858.13, -13119.71, -17487.71, -8331.52, 0.000, 0.000, 0.000, 23:23:31.523, 1550615011523
154, -17233.75, -66307.59, -83719.84, -58604.28, -29858.29, -13121.84, -17462.68, -8320.12, 0.000, 0.000, 0.000, 23:23:31.524, 1550615011524
155, -17231.43, -66304.19, -83716.60, -58600.71, -29863.85, -13121.30, -17483.33, -8321.42, 0.068, -0.006, 0.992, 23:23:31.524, 1550615011524
156, -17228.14, -66303.36, -83713.63, -58604.98, -29876.37, -13122.64, -17519.72, -8335.17, 0.000, 0.000, 0.000, 23:23:31.524, 1550615011524
157, -17228.28, -66309.20, -83707.19, -58609.65, -29872.95, -13116.58, -17500.79, -8348.69, 0.000, 0.000, 0.000, 23:23:31.524, 1550615011524
158, -17221.15, -66309.06, -83699.37, -58610.95, -29848.90, -13112.29, -17472.71, -8339.68, 0.000, 0.000, 0.000, 23:23:31.524, 1550615011524
159, -17224.21, -66310.85, -83706.66, -58610.74, -29849.77, -13123.13, -17466.08, -8335.55, 0.000, 0.000, 0.000, 23:23:31.525, 1550615011525
160, -17226.29, -66308.13, -83705.20, -58610.21, -29852.52, -13121.30, -17475.06, -8327.66, 0.000, 0.000, 0.000, 23:23:31.525, 1550615011525
161, -17220.23, -66302.70, -83701.85, -58607.39, -29846.22, -13115.27, -17473.43, -8320.28, 0.000, 0.000, 0.000, 23:23:31.525, 1550615011525
162, -17222.71, -66301.04, -83709.31, -58606.32, -29844.41, -13116.92, -17458.70, -8337.07, 0.000, 0.000, 0.000, 23:23:31.525, 1550615011525
163, -17232.14, -66304.28, -83720.94, -58611.77, -29858.91, -13126.26, -17466.30, -8360.36, 0.000, 0.000, 0.000, 23:23:31.525, 1550615011525
164, -17237.87, -66308.68, -83728.18, -58618.48, -29873.24, -13132.72, -17498.08, -8361.25, 0.000, 0.000, 0.000, 23:23:31.525, 1550615011525
165, -17230.09, -66301.06, -83717.43, -58600.80, -29867.29, -13124.83, -17487.09, -8322.98, 0.072, -0.006, 0.990, 23:23:31.588, 1550615011588
166, -17221.19, -66296.34, -83707.93, -58599.95, -29851.49, -13121.57, -17460.11, -8304.54, 0.000, 0.000, 0.000, 23:23:31.591, 1550615011591
167, -17213.66, -66292.34, -83699.03, -58601.85, -29851.74, -13120.61, -17460.31, -8318.22, 0.000, 0.000, 0.000, 23:23:31.591, 1550615011591
168, -17209.81, -66288.16, -83693.60, -58595.36, -29861.01, -13117.12, -17482.17, -8329.51, 0.000, 0.000, 0.000, 23:23:31.594, 1550615011594
169, -17213.35, -66292.79, -83697.94, -58593.11, -29871.38, -13122.19, -17516.21, -8347.06, 0.000, 0.000, 0.000, 23:23:31.594, 1550615011594
170, -17218.58, -66296.70, -83702.36, -58594.34, -29853.19, -13122.24, -17476.56, -8357.74, 0.000, 0.000, 0.000, 23:23:31.594, 1550615011594
171, -17219.98, -66299.32, -83697.04, -58591.96, -29852.43, -13118.66, -17475.22, -8358.19, 0.000, 0.000, 0.000, 23:23:31.595, 1550615011595
172, -17223.79, -66309.51, -83701.54, -58599.34, -29864.01, -13124.50, -17483.20, -8352.38, 0.000, 0.000, 0.000, 23:23:31.595, 1550615011595
173, -17227.74, -66314.65, -83702.52, -58602.11, -29865.04, -13126.87, -17483.98, -8358.88, 0.000, 0.000, 0.000, 23:23:31.595, 1550615011595
174, -17229.48, -66315.61, -83703.08, -58602.72, -29865.35, -13129.17, -17481.05, -8361.70, 0.000, 0.000, 0.000, 23:23:31.595, 1550615011595
175, -17226.85, -66317.31, -83704.44, -58601.49, -29873.08, -13132.63, -17494.64, -8356.60, 0.066, 0.002, 0.988, 23:23:31.595, 1550615011595
176, -17225.24, -66314.31, -83706.59, -58599.88, -29858.17, -13125.99, -17476.27, -8332.31, 0.000, 0.000, 0.000, 23:23:31.595, 1550615011595
177, -17230.98, -66323.19, -83719.95, -58610.54, -29870.65, -13133.19, -17482.91, -8330.29, 0.000, 0.000, 0.000, 23:23:31.595, 1550615011595
178, -17221.41, -66316.66, -83713.09, -58597.24, -29864.25, -13123.31, -17480.92, -8323.88, 0.000, 0.000, 0.000, 23:23:31.595, 1550615011595
179, -17217.26, -66310.78, -83711.10, -58592.13, -29866.94, -13120.43, -17495.65, -8326.34, 0.000, 0.000, 0.000, 23:23:31.595, 1550615011595
180, -17221.59, -66316.53, -83718.88, -58595.99, -29865.97, -13130.62, -17496.65, -8340.60, 0.000, 0.000, 0.000, 23:23:31.643, 1550615011643
181, -17226.40, -66324.04, -83720.96, -58597.20, -29864.77, -13136.21, -17485.84, -8347.15, 0.000, 0.000, 0.000, 23:23:31.643, 1550615011643
182, -17222.22, -66319.34, -83713.92, -58592.68, -29868.79, -13137.84, -17495.07, -8352.27, 0.000, 0.000, 0.000, 23:23:31.643, 1550615011643
183, -17220.39, -66317.53, -83708.64, -58596.82, -29868.66, -13136.43, -17489.48, -8352.78, 0.000, 0.000, 0.000, 23:23:31.643, 1550615011643
184, -17227.88, -66320.33, -83706.30, -58596.26, -29862.64, -13129.46, -17475.08, -8348.06, 0.066, 0.000, 1.000, 23:23:31.643, 1550615011643
185, -17223.79, -66316.46, -83700.24, -58590.07, -29867.67, -13127.72, -17495.47, -8331.05, 0.000, 0.000, 0.000, 23:23:31.644, 1550615011644
186, -17231.23, -66325.80, -83713.72, -58601.27, -29875.61, -13144.14, -17508.14, -8340.24, 0.000, 0.000, 0.000, 23:23:31.644, 1550615011644
187, -17228.17, -66326.84, -83712.98, -58604.84, -29874.20, -13141.19, -17483.36, -8345.78, 0.000, 0.000, 0.000, 23:23:31.644, 1550615011644
188, -17225.86, -66321.00, -83708.02, -58601.67, -29875.99, -13129.91, -17486.82, -8351.37, 0.000, 0.000, 0.000, 23:23:31.644, 1550615011644
189, -17227.81, -66321.52, -83707.88, -58599.79, -29872.68, -13118.33, -17472.07, -8357.45, 0.000, 0.000, 0.000, 23:23:31.644, 1550615011644
190, -17229.30, -66322.59, -83710.41, -58596.19, -29859.52, -13112.00, -17458.10, -8354.43, 0.000, 0.000, 0.000, 23:23:31.644, 1550615011644
191, -17232.32, -66327.57, -83717.02, -58605.94, -29865.01, -13120.16, -17476.52, -8359.69, 0.000, 0.000, 0.000, 23:23:31.644, 1550615011644
192, -17233.51, -66326.27, -83711.80, -58593.78, -29873.20, -13117.34, -17484.70, -8342.83, 0.000, 0.000, 0.000, 23:23:31.644, 1550615011644
193, -17238.18, -66331.48, -83712.35, -58597.42, -29890.65, -13119.69, -17487.42, -8332.22, 0.000, 0.000, 0.000, 23:23:31.644, 1550615011644
194, -17240.75, -66334.77, -83711.80, -58601.49, -29913.27, -13124.85, -17508.01, -8332.17, 0.062, -0.002, 0.998, 23:23:31.644, 1550615011644
195, -17230.67, -66321.80, -83698.70, -58594.70, -29911.19, -13116.88, -17494.69, -8340.15, 0.000, 0.000, 0.000, 23:23:31.703, 1550615011703
196, -17233.66, -66327.81, -83697.31, -58597.98, -29915.28, -13118.13, -17492.41, -8349.43, 0.000, 0.000, 0.000, 23:23:31.703, 1550615011703
197, -17230.04, -66326.99, -83694.47, -58600.75, -29907.39, -13114.06, -17484.29, -8357.63, 0.000, 0.000, 0.000, 23:23:31.703, 1550615011703
198, -17234.22, -66330.05, -83696.98, -58599.72, -29916.74, -13116.27, -17497.26, -8356.07, 0.000, 0.000, 0.000, 23:23:31.703, 1550615011703
199, -17236.01, -66329.91, -83700.58, -58592.55, -29924.00, -13116.94, -17506.87, -8351.66, 0.000, 0.000, 0.000, 23:23:31.703, 1550615011703
200, -17231.00, -66321.45, -83700.75, -58584.57, -29914.39, -13110.62, -17486.93, -8334.76, 0.000, 0.000, 0.000, 23:23:31.703, 1550615011703
201, -17228.19, -66321.83, -83702.38, -58588.99, -29919.02, -13115.09, -17486.53, -8327.03, 0.000, 0.000, 0.000, 23:23:31.703, 1550615011703
202, -17225.30, -66323.37, -83700.40, -58589.75, -29941.90, -13125.61, -17512.88, -8335.32, 0.000, 0.000, 0.000, 23:23:31.703, 1550615011703
203, -17224.07, -66320.41, -83698.74, -58588.32, -29934.55, -13123.13, -17520.57, -8330.83, 0.000, 0.000, 0.000, 23:23:31.703, 1550615011703
204, -17222.04, -66321.42, -83697.16, -58588.41, -29917.03, -13115.87, -17491.58, -8335.08, 0.068, -0.008, 0.988, 23:23:31.704, 1550615011704
205, -17224.61, -66325.36, -83697.60, -58593.55, -29929.50, -13118.10, -17520.01, -8330.43, 0.000, 0.000, 0.000, 23:23:31.704, 1550615011704
206, -17220.21, -66319.91, -83693.24, -58592.75, -29912.33, -13109.95, -17471.60, -8335.34, 0.000, 0.000, 0.000, 23:23:31.704, 1550615011704
207, -17219.96, -66320.06, -83693.34, -58593.31, -29904.15, -13111.67, -17454.50, -8344.33, 0.000, 0.000, 0.000, 23:23:31.704, 1550615011704
208, -17221.39, -66322.41, -83690.94, -58595.16, -29912.15, -13116.54, -17461.18, -8342.56, 0.000, 0.000, 0.000, 23:23:31.704, 1550615011704
209, -17232.30, -66331.55, -83698.59, -58605.15, -29932.94, -13129.68, -17485.19, -8351.97, 0.000, 0.000, 0.000, 23:23:31.704, 1550615011704
210, -17230.54, -66329.05, -83692.05, -58594.65, -29941.64, -13131.92, -17499.69, -8350.95, 0.000, 0.000, 0.000, 23:23:31.764, 1550615011764
211, -17226.64, -66324.53, -83691.88, -58590.29, -29940.88, -13129.41, -17500.10, -8333.94, 0.000, 0.000, 0.000, 23:23:31.764, 1550615011764
212, -17223.07, -66319.32, -83696.15, -58591.45, -29931.09, -13123.69, -17485.75, -8345.98, 0.000, 0.000, 0.000, 23:23:31.764, 1550615011764
213, -17221.84, -66316.44, -83702.19, -58581.28, -29926.71, -13115.38, -17482.77, -8336.66, 0.000, 0.000, 0.000, 23:23:31.764, 1550615011764
214, -17228.75, -66324.95, -83710.99, -58580.28, -29930.86, -13118.28, -17486.02, -8328.95, 0.066, -0.008, 0.994, 23:23:31.764, 1550615011764
215, -17233.89, -66330.61, -83709.42, -58587.47, -29941.93, -13124.54, -17497.10, -8328.73, 0.000, 0.000, 0.000, 23:23:31.764, 1550615011764
216, -17232.50, -66329.13, -83708.98, -58585.39, -29953.10, -13129.28, -17519.90, -8334.00, 0.000, 0.000, 0.000, 23:23:31.765, 1550615011765
217, -17232.46, -66329.98, -83710.99, -58582.29, -29934.82, -13130.58, -17509.10, -8338.00, 0.000, 0.000, 0.000, 23:23:31.765, 1550615011765
218, -17232.97, -66330.12, -83711.88, -58580.70, -29921.16, -13128.32, -17476.45, -8327.63, 0.000, 0.000, 0.000, 23:23:31.765, 1550615011765
219, -17234.71, -66333.13, -83710.55, -58583.07, -29937.12, -13130.46, -17476.65, -8342.74, 0.000, 0.000, 0.000, 23:23:31.765, 1550615011765
220, -17229.44, -66328.48, -83706.84, -58579.98, -29953.30, -13134.96, -17493.90, -8325.49, 0.000, 0.000, 0.000, 23:23:31.765, 1550615011765
221, -17228.12, -66324.42, -83707.98, -58579.79, -29954.46, -13137.77, -17497.75, -8326.43, 0.000, 0.000, 0.000, 23:23:31.765, 1550615011765
222, -17225.10, -66317.09, -83706.12, -58573.77, -29953.26, -13134.38, -17497.35, -8322.02, 0.000, 0.000, 0.000, 23:23:31.765, 1550615011765
223, -17225.68, -66319.05, -83710.27, -58576.28, -29956.75, -13135.94, -17500.83, -8331.43, 0.000, 0.000, 0.000, 23:23:31.765, 1550615011765
224, -17227.43, -66323.59, -83712.58, -58580.12, -29964.12, -13138.22, -17524.55, -8324.53, 0.064, 0.000, 0.998, 23:23:31.765, 1550615011765
225, -17226.49, -66318.27, -83711.55, -58581.84, -29955.27, -13135.54, -17516.66, -8316.99, 0.000, 0.000, 0.000, 23:23:31.823, 1550615011823
226, -17225.73, -66315.55, -83715.62, -58579.81, -29942.35, -13135.16, -17489.30, -8319.92, 0.000, 0.000, 0.000, 23:23:31.824, 1550615011824
227, -17229.26, -66319.52, -83719.30, -58590.13, -29946.46, -13139.50, -17475.29, -8353.67, 0.000, 0.000, 0.000, 23:23:31.824, 1550615011824
228, -17229.91, -66326.59, -83715.57, -58597.46, -29947.18, -13140.32, -17481.41, -8372.94, 0.000, 0.000, 0.000, 23:23:31.824, 1550615011824
229, -17223.05, -66326.20, -83707.86, -58594.58, -29942.53, -13131.67, -17479.96, -8357.85, 0.000, 0.000, 0.000, 23:23:31.824, 1550615011824
230, -17220.95, -66325.83, -83708.94, -58596.82, -29937.46, -13126.46, -17477.34, -8357.00, 0.000, 0.000, 0.000, 23:23:31.824, 1550615011824
231, -17220.95, -66323.81, -83716.06, -58586.94, -29940.43, -13129.66, -17490.31, -8370.37, 0.000, 0.000, 0.000, 23:23:31.824, 1550615011824
232, -17222.96, -66322.56, -83720.34, -58583.88, -29935.58, -13128.63, -17488.99, -8355.53, 0.000, 0.000, 0.000, 23:23:31.824, 1550615011824
233, -17229.10, -66324.71, -83719.48, -58584.37, -29926.39, -13126.78, -17480.94, -8327.68, 0.000, 0.000, 0.000, 23:23:31.824, 1550615011824
234, -17228.34, -66325.42, -83710.63, -58581.02, -29925.90, -13120.09, -17479.38, -8303.18, 0.062, -0.006, 0.994, 23:23:31.824, 1550615011824
235, -17233.28, -66331.55, -83717.43, -58591.54, -29944.34, -13129.57, -17498.67, -8310.74, 0.000, 0.000, 0.000, 23:23:31.824, 1550615011824
236, -17235.72, -66335.70, -83719.17, -58596.28, -29942.73, -13135.58, -17498.85, -8341.09, 0.000, 0.000, 0.000, 23:23:31.824, 1550615011824
237, -17235.72, -66337.72, -83717.77, -58594.85, -29930.46, -13134.38, -17476.81, -8345.94, 0.000, 0.000, 0.000, 23:23:31.824, 1550615011824
238, -17234.24, -66334.25, -83720.34, -58592.14, -29939.47, -13138.51, -17482.84, -8353.43, 0.000, 0.000, 0.000, 23:23:31.824, 1550615011824
239, -17233.40, -66333.13, -83722.10, -58592.66, -29949.77, -13141.62, -17505.30, -8353.32, 0.000, 0.000, 0.000, 23:23:31.825, 1550615011825
240, -17230.80, -66329.67, -83724.31, -58591.90, -29952.74, -13139.41, -17509.64, -8350.34, 0.000, 0.000, 0.000, 23:23:31.825, 1550615011825
241, -17223.05, -66317.89, -83721.56, -58576.81, -29944.65, -13133.13, -17493.97, -8336.40, 0.000, 0.000, 0.000, 23:23:31.883, 1550615011883
242, -17226.36, -66322.81, -83723.46, -58583.96, -29949.04, -13138.22, -17499.31, -8334.14, 0.000, 0.000, 0.000, 23:23:31.883, 1550615011883
243, -17230.04, -66327.37, -83726.63, -58588.26, -29951.22, -13145.82, -17514.27, -8346.99, 0.064, -0.002, 0.992, 23:23:31.884, 1550615011884
244, -17239.47, -66334.03, -83736.38, -58589.17, -29960.34, -13148.01, -17522.69, -8348.24, 0.000, 0.000, 0.000, 23:23:31.884, 1550615011884
245, -17245.33, -66344.42, -83745.34, -58598.43, -29966.92, -13153.22, -17529.49, -8335.59, 0.000, 0.000, 0.000, 23:23:31.884, 1550615011884
246, -17246.02, -66350.68, -83736.65, -58604.53, -29964.81, -13150.25, -17522.63, -8328.19, 0.000, 0.000, 0.000, 23:23:31.884, 1550615011884
247, -17242.52, -66349.70, -83727.28, -58607.30, -29959.81, -13147.09, -17533.20, -8331.34, 0.000, 0.000, 0.000, 23:23:31.884, 1550615011884
248, -17236.35, -66343.71, -83718.61, -58596.59, -29931.96, -13138.62, -17492.12, -8348.62, 0.000, 0.000, 0.000, 23:23:31.884, 1550615011884
249, -17233.35, -66343.09, -83710.72, -58594.29, -29939.31, -13130.49, -17494.67, -8365.05, 0.000, 0.000, 0.000, 23:23:31.884, 1550615011884
250, -17237.15, -66345.38, -83713.72, -58597.67, -29956.05, -13137.24, -17526.27, -8357.85, 0.000, 0.000, 0.000, 23:23:31.884, 1550615011884
251, -17235.38, -66339.75, -83713.23, -58593.66, -29945.10, -13133.71, -17506.91, -8343.33, 0.000, 0.000, 0.000, 23:23:31.884, 1550615011884
252, -17237.04, -66339.23, -83716.02, -58595.59, -29934.21, -13130.51, -17486.19, -8351.68, 0.000, 0.000, 0.000, 23:23:31.884, 1550615011884
253, -17245.73, -66344.09, -83727.27, -58601.51, -29941.41, -13138.04, -17485.52, -8364.83, 0.062, -0.004, 0.990, 23:23:31.884, 1550615011884
254, -17243.07, -66338.52, -83724.05, -58590.45, -29943.87, -13132.92, -17498.20, -8349.67, 0.000, 0.000, 0.000, 23:23:31.884, 1550615011884
255, -17250.03, -66343.38, -83728.27, -58597.46, -29954.18, -13134.98, -17517.20, -8342.10, 0.000, 0.000, 0.000, 23:23:31.884, 1550615011884
0, -17244.68, -66337.94, -83722.68, -58590.58, -29956.05, -13132.07, -17514.09, -8338.25, 0.000, 0.000, 0.000, 23:23:31.944, 1550615011944
1, -17235.41, -66329.96, -83715.23, -58574.73, -29943.78, -13125.01, -17496.16, -8324.50, 0.000, 0.000, 0.000, 23:23:31.944, 1550615011944
2, -17240.55, -66336.71, -83720.80, -58584.55, -29950.08, -13133.97, -17512.86, -8329.35, 0.000, 0.000, 0.000, 23:23:31.944, 1550615011944
3, -17241.62, -66339.33, -83719.84, -58584.57, -29953.95, -13132.14, -17498.89, -8316.17, 0.000, 0.000, 0.000, 23:23:31.945, 1550615011945
4, -17242.16, -66342.52, -83717.80, -58589.06, -29957.24, -13132.32, -17503.83, -8319.41, 0.000, 0.000, 0.000, 23:23:31.945, 1550615011945
5, -17247.39, -66347.91, -83721.01, -58583.18, -29950.26, -13135.43, -17508.88, -8337.80, 0.000, 0.000, 0.000, 23:23:31.945, 1550615011945
6, -17244.57, -66346.81, -83722.48, -58584.28, -29942.98, -13132.97, -17513.11, -8336.24, 0.000, 0.000, 0.000, 23:23:31.945, 1550615011945
7, -17248.84, -66349.84, -83729.61, -58588.30, -29943.78, -13137.35, -17498.71, -8353.65, 0.066, -0.002, 0.996, 23:23:31.945, 1550615011945
8, -17250.20, -66350.26, -83734.52, -58590.04, -29958.36, -13146.63, -17504.41, -8363.35, 0.000, 0.000, 0.000, 23:23:31.945, 1550615011945
9, -17250.23, -66350.64, -83732.29, -58590.60, -29959.38, -13144.32, -17515.99, -8356.18, 0.000, 0.000, 0.000, 23:23:31.945, 1550615011945
10, -17250.47, -66348.07, -83733.84, -58591.32, -29951.65, -13142.71, -17499.83, -8354.21, 0.000, 0.000, 0.000, 23:23:31.945, 1550615011945
11, -17247.01, -66340.67, -83732.63, -58587.86, -29940.65, -13138.74, -17487.71, -8348.60, 0.000, 0.000, 0.000, 23:23:31.945, 1550615011945
12, -17252.46, -66341.79, -83738.38, -58587.86, -29958.49, -13144.97, -17517.51, -8346.92, 0.000, 0.000, 0.000, 23:23:31.945, 1550615011945
13, -17252.15, -66337.83, -83738.10, -58588.68, -29958.24, -13144.19, -17512.59, -8343.39, 0.000, 0.000, 0.000, 23:23:31.945, 1550615011945
14, -17247.52, -66326.99, -83732.94, -58584.79, -29913.07, -13128.18, -17461.56, -8337.13, 0.000, 0.000, 0.000, 23:23:31.945, 1550615011945
15, -17252.15, -66327.91, -83740.45, -58590.96, -29927.73, -13132.99, -17475.51, -8330.54, 0.000, 0.000, 0.000, 23:23:32.003, 1550615012003
16, -17249.42, -66319.01, -83740.00, -58593.96, -29937.72, -13137.44, -17484.92, -8323.21, 0.000, 0.000, 0.000, 23:23:32.004, 1550615012004
17, -17252.89, -66319.99, -83740.38, -58597.18, -29945.66, -13144.41, -17485.79, -8334.27, 0.066, -0.002, 0.990, 23:23:32.004, 1550615012004
18, -17252.46, -66316.93, -83740.77, -58602.70, -29958.58, -13151.34, -17510.94, -8350.99, 0.000, 0.000, 0.000, 23:23:32.004, 1550615012004
19, -17246.47, -66311.43, -83736.72, -58594.34, -29951.81, -13149.89, -17512.79, -8345.90, 0.000, 0.000, 0.000, 23:23:32.004, 1550615012004
20, -17245.53, -66305.13, -83738.51, -58594.40, -29948.43, -13152.48, -17497.66, -8348.06, 0.000, 0.000, 0.000, 23:23:32.004, 1550615012004
21, -17240.95, -66300.05, -83732.91, -58590.31, -29945.26, -13151.54, -17484.81, -8352.13, 0.000, 0.000, 0.000, 23:23:32.004, 1550615012004
22, -17239.34, -66298.27, -83728.41, -58588.61, -29948.52, -13152.12, -17481.79, -8352.11, 0.000, 0.000, 0.000, 23:23:32.004, 1550615012004
23, -17236.68, -66294.16, -83728.00, -58586.36, -29936.96, -13151.74, -17484.76, -8351.28, 0.000, 0.000, 0.000, 23:23:32.004, 1550615012004
24, -17235.12, -66292.86, -83732.63, -58588.14, -29950.91, -13156.33, -17487.65, -8345.43, 0.000, 0.000, 0.000, 23:23:32.004, 1550615012004
25, -17239.83, -66296.32, -83736.72, -58593.49, -29969.11, -13164.19, -17499.29, -8344.58, 0.000, 0.000, 0.000, 23:23:32.004, 1550615012004
26, -17238.98, -66293.22, -83727.64, -58594.47, -29954.71, -13152.53, -17490.75, -8345.72, 0.000, 0.000, 0.000, 23:23:32.004, 1550615012004
27, -17237.66, -66293.23, -83724.87, -58594.02, -29953.44, -13150.18, -17487.80, -8346.16, 0.072, -0.006, 0.992, 23:23:32.004, 1550615012004
28, -17240.59, -66291.61, -83726.41, -58590.85, -29956.50, -13149.44, -17489.57, -8336.24, 0.000, 0.000, 0.000, 23:23:32.004, 1550615012004
29, -17244.50, -66299.38, -83728.94, -58595.90, -29966.65, -13153.93, -17497.73, -8343.15, 0.000, 0.000, 0.000, 23:23:32.005, 1550615012005
30, -17245.29, -66303.07, -83725.81, -58599.21, -29966.96, -13153.13, -17498.73, -8351.19, 0.000, 0.000, 0.000, 23:23:32.067, 1550615012067
31, -17245.64, -66304.57, -83725.90, -58597.80, -29965.06, -13153.38, -17502.18, -8356.51, 0.000, 0.000, 0.000, 23:23:32.067, 1550615012067
32, -17240.77, -66302.45, -83722.05, -58596.08, -29956.57, -13152.46, -17498.02, -8350.50, 0.000, 0.000, 0.000, 23:23:32.067, 1550615012067
33, -17239.63, -66301.44, -83724.52, -58598.58, -29959.25, -13158.65, -17498.64, -8344.73, 0.000, 0.000, 0.000, 23:23:32.067, 1550615012067
34, -17239.43, -66301.02, -83725.01, -58595.92, -29961.62, -13161.47, -17507.58, -8346.41, 0.000, 0.000, 0.000, 23:23:32.067, 1550615012067
35, -17238.65, -66307.09, -83722.13, -58599.95, -29963.63, -13162.03, -17511.23, -8355.71, 0.000, 0.000, 0.000, 23:23:32.067, 1550615012067
36, -17242.27, -66313.33, -83720.60, -58607.93, -29941.37, -13157.64, -17480.38, -8369.36, 0.000, 0.000, 0.000, 23:23:32.068, 1550615012068
37, -17241.84, -66313.35, -83729.32, -58612.11, -29930.91, -13163.39, -17480.76, -8375.53, 0.066, -0.002, 0.980, 23:23:32.068, 1550615012068
38, -17234.47, -66305.60, -83721.45, -58599.68, -29930.97, -13157.73, -17479.71, -8364.09, 0.000, 0.000, 0.000, 23:23:32.068, 1550615012068
39, -17239.36, -66313.16, -83733.23, -58609.02, -29938.89, -13162.32, -17485.26, -8348.35, 0.000, 0.000, 0.000, 23:23:32.068, 1550615012068
40, -17246.11, -66320.30, -83746.93, -58609.94, -29955.45, -13173.11, -17499.38, -8351.95, 0.000, 0.000, 0.000, 23:23:32.068, 1550615012068
41, -17247.75, -66321.63, -83746.30, -58618.74, -29953.95, -13170.83, -17504.86, -8356.11, 0.000, 0.000, 0.000, 23:23:32.068, 1550615012068
42, -17245.40, -66325.20, -83741.91, -58619.82, -29950.15, -13165.47, -17498.76, -8352.13, 0.000, 0.000, 0.000, 23:23:32.068, 1550615012068
43, -17237.89, -66318.23, -83737.27, -58602.94, -29938.08, -13157.69, -17487.63, -8352.80, 0.000, 0.000, 0.000, 23:23:32.068, 1550615012068
44, -17241.26, -66319.75, -83742.73, -58602.79, -29954.78, -13167.10, -17514.63, -8361.76, 0.000, 0.000, 0.000, 23:23:32.068, 1550615012068
45, -17246.31, -66324.71, -83733.79, -58602.79, -29951.45, -13162.54, -17513.96, -8360.09, 0.000, 0.000, 0.000, 23:23:32.124, 1550615012124
46, -17251.21, -66331.98, -83732.83, -58612.57, -29945.84, -13161.33, -17502.02, -8368.05, 0.000, 0.000, 0.000, 23:23:32.124, 1550615012124
47, -17249.69, -66332.94, -83727.53, -58613.11, -29935.45, -13156.21, -17473.65, -8363.37, 0.066, -0.006, 0.998, 23:23:32.125, 1550615012125
48, -17245.02, -66326.03, -83721.27, -58610.18, -29926.64, -13150.85, -17466.35, -8361.85, 0.000, 0.000, 0.000, 23:23:32.125, 1550615012125
49, -17238.65, -66320.55, -83724.80, -58606.32, -29928.69, -13148.84, -17469.77, -8353.14, 0.000, 0.000, 0.000, 23:23:32.125, 1550615012125
50, -17246.11, -66328.93, -83741.95, -58608.20, -29938.64, -13152.10, -17483.80, -8338.97, 0.000, 0.000, 0.000, 23:23:32.125, 1550615012125
51, -17246.47, -66331.82, -83739.49, -58609.29, -29944.45, -13154.65, -17497.15, -8357.79, 0.000, 0.000, 0.000, 23:23:32.125, 1550615012125
52, -17243.16, -66334.32, -83739.51, -58614.86, -29952.34, -13159.97, -17501.24, -8369.54, 0.000, 0.000, 0.000, 23:23:32.125, 1550615012125
53, -17236.28, -66326.90, -83742.08, -58612.62, -29949.17, -13161.06, -17506.33, -8368.52, 0.000, 0.000, 0.000, 23:23:32.125, 1550615012125
54, -17237.15, -66327.21, -83747.22, -58615.59, -29944.90, -13163.70, -17503.65, -8373.12, 0.000, 0.000, 0.000, 23:23:32.125, 1550615012125
55, -17236.97, -66331.19, -83747.22, -58611.84, -29947.89, -13163.19, -17500.68, -8367.04, 0.000, 0.000, 0.000, 23:23:32.125, 1550615012125
56, -17239.88, -66337.98, -83749.80, -58624.80, -29965.26, -13174.10, -17509.71, -8377.75, 0.066, -0.004, 0.992, 23:23:32.125, 1550615012125
57, -17239.12, -66335.82, -83739.00, -58623.24, -29946.11, -13170.79, -17482.39, -8370.33, 0.000, 0.000, 0.000, 23:23:32.125, 1550615012125
58, -17236.84, -66330.97, -83738.35, -58614.14, -29953.50, -13172.49, -17488.00, -8363.44, 0.000, 0.000, 0.000, 23:23:32.125, 1550615012125
59, -17238.74, -66333.11, -83742.64, -58616.26, -29950.60, -13177.22, -17497.91, -8374.39, 0.000, 0.000, 0.000, 23:23:32.125, 1550615012125
60, -17242.34, -66333.74, -83745.55, -58618.83, -29951.61, -13177.96, -17501.46, -8366.88, 0.000, 0.000, 0.000, 23:23:32.185, 1550615012185
61, -17238.49, -66324.17, -83734.21, -58601.15, -29955.61, -13166.74, -17504.79, -8320.84, 0.000, 0.000, 0.000, 23:23:32.185, 1550615012185
62, -17241.84, -66321.52, -83737.99, -58601.62, -29948.86, -13170.32, -17496.56, -8331.12, 0.000, 0.000, 0.000, 23:23:32.185, 1550615012185
63, -17238.09, -66315.86, -83742.40, -58595.36, -29946.53, -13172.26, -17488.21, -8351.59, 0.000, 0.000, 0.000, 23:23:32.185, 1550615012185
64, -17236.21, -66315.05, -83747.11, -58598.47, -29956.28, -13179.55, -17499.56, -8372.27, 0.000, 0.000, 0.000, 23:23:32.185, 1550615012185
65, -17242.72, -66322.67, -83748.59, -58607.81, -29947.89, -13178.79, -17495.85, -8373.28, 0.000, 0.000, 0.000, 23:23:32.185, 1550615012185
66, -17249.31, -66330.77, -83749.93, -58608.89, -29950.15, -13172.80, -17489.66, -8366.82, 0.068, -0.002, 0.998, 23:23:32.185, 1550615012185
67, -17246.65, -66328.89, -83741.86, -58600.89, -29947.85, -13162.34, -17490.69, -8355.46, 0.000, 0.000, 0.000, 23:23:32.185, 1550615012185
68, -17245.67, -66328.93, -83741.45, -58599.48, -29948.70, -13159.14, -17496.59, -8356.87, 0.000, 0.000, 0.000, 23:23:32.186, 1550615012186
69, -17246.05, -66331.39, -83749.19, -58597.40, -29958.36, -13166.70, -17502.35, -8369.92, 0.000, 0.000, 0.000, 23:23:32.186, 1550615012186
70, -17243.28, -66329.73, -83743.65, -58604.86, -29945.08, -13163.79, -17503.03, -8371.71, 0.000, 0.000, 0.000, 23:23:32.186, 1550615012186
71, -17241.42, -66325.34, -83736.77, -58598.36, -29934.26, -13161.42, -17493.95, -8354.54, 0.000, 0.000, 0.000, 23:23:32.186, 1550615012186
72, -17238.69, -66322.88, -83734.75, -58599.12, -29934.84, -13166.45, -17495.96, -8332.46, 0.000, 0.000, 0.000, 23:23:32.186, 1550615012186
73, -17238.36, -66325.76, -83737.52, -58600.75, -29944.21, -13172.46, -17497.97, -8326.05, 0.000, 0.000, 0.000, 23:23:32.186, 1550615012186
74, -17240.82, -66329.85, -83742.35, -58606.79, -29959.65, -13178.23, -17512.19, -8339.19, 0.000, 0.000, 0.000, 23:23:32.186, 1550615012186
75, -17235.56, -66327.93, -83735.27, -58599.14, -29950.82, -13169.92, -17509.51, -8358.14, 0.000, 0.000, 0.000, 23:23:32.244, 1550615012244
76, -17235.97, -66324.69, -83732.27, -58590.29, -29927.51, -13160.97, -17479.18, -8356.02, 0.066, -0.006, 0.990, 23:23:32.244, 1550615012244
77, -17249.73, -66331.95, -83746.22, -58595.41, -29937.84, -13166.61, -17480.45, -8353.96, 0.000, 0.000, 0.000, 23:23:32.245, 1550615012245
78, -17256.46, -66347.40, -83757.82, -58605.11, -29957.46, -13180.42, -17499.52, -8367.80, 0.000, 0.000, 0.000, 23:23:32.245, 1550615012245
79, -17253.94, -66345.16, -83749.99, -58594.63, -29962.06, -13175.03, -17512.32, -8365.43, 0.000, 0.000, 0.000, 23:23:32.245, 1550615012245
80, -17257.09, -66346.81, -83752.90, -58592.32, -29966.92, -13172.75, -17511.14, -8353.45, 0.000, 0.000, 0.000, 23:23:32.245, 1550615012245
81, -17260.78, -66350.30, -83761.73, -58596.79, -29959.47, -13177.22, -17515.59, -8331.01, 0.000, 0.000, 0.000, 23:23:32.245, 1550615012245
82, -17261.63, -66349.27, -83763.88, -58600.82, -29942.55, -13174.10, -17492.52, -8310.62, 0.000, 0.000, 0.000, 23:23:32.245, 1550615012245
83, -17258.16, -66344.65, -83758.17, -58591.95, -29929.10, -13166.83, -17477.41, -8328.30, 0.000, 0.000, 0.000, 23:23:32.245, 1550615012245
84, -17254.25, -66342.52, -83752.37, -58590.29, -29944.12, -13164.55, -17492.45, -8356.02, 0.000, 0.000, 0.000, 23:23:32.245, 1550615012245
85, -17262.68, -66350.23, -83752.14, -58603.16, -29958.06, -13165.00, -17506.02, -8369.21, 0.000, 0.000, 0.000, 23:23:32.245, 1550615012245
86, -17260.15, -66345.18, -83741.77, -58590.87, -29955.65, -13158.56, -17502.22, -8361.09, 0.068, 0.000, 0.998, 23:23:32.245, 1550615012245
87, -17262.74, -66345.09, -83741.45, -58593.29, -29949.64, -13157.33, -17488.81, -8350.75, 0.000, 0.000, 0.000, 23:23:32.245, 1550615012245
88, -17265.80, -66348.96, -83747.36, -58600.41, -29958.96, -13162.18, -17508.17, -8354.54, 0.000, 0.000, 0.000, 23:23:32.245, 1550615012245
89, -17264.98, -66345.88, -83745.86, -58595.97, -29959.54, -13161.06, -17512.41, -8324.50, 0.000, 0.000, 0.000, 23:23:32.245, 1550615012245
90, -17262.21, -66340.42, -83741.03, -58587.41, -29942.64, -13146.33, -17481.16, -8300.52, 0.000, 0.000, 0.000, 23:23:32.304, 1550615012304
91, -17267.19, -66348.58, -83746.26, -58595.18, -29931.60, -13141.28, -17467.69, -8320.86, 0.000, 0.000, 0.000, 23:23:32.304, 1550615012304
92, -17269.09, -66353.30, -83753.95, -58600.06, -29938.22, -13150.85, -17479.78, -8342.30, 0.000, 0.000, 0.000, 23:23:32.304, 1550615012304
93, -17266.10, -66350.19, -83753.88, -58593.24, -29950.11, -13154.16, -17492.63, -8348.20, 0.000, 0.000, 0.000, 23:23:32.304, 1550615012304
94, -17272.69, -66358.80, -83761.30, -58597.49, -29965.40, -13164.71, -17519.34, -8359.82, 0.000, 0.000, 0.000, 23:23:32.304, 1550615012304
95, -17274.17, -66364.05, -83760.32, -58602.81, -29948.30, -13157.85, -17491.00, -8345.67, 0.000, 0.000, 0.000, 23:23:32.304, 1550615012304
96, -17277.07, -66367.73, -83755.70, -58607.77, -29955.38, -13154.58, -17496.23, -8345.36, 0.064, -0.002, 0.990, 23:23:32.304, 1550615012304
97, -17266.54, -66359.66, -83746.93, -58597.49, -29941.23, -13149.98, -17489.66, -8343.30, 0.000, 0.000, 0.000, 23:23:32.304, 1550615012304
98, -17263.19, -66354.86, -83741.91, -58591.27, -29928.83, -13148.59, -17463.55, -8349.72, 0.000, 0.000, 0.000, 23:23:32.304, 1550615012304
99, -17264.96, -66355.48, -83740.16, -58592.41, -29932.43, -13148.88, -17469.12, -8344.44, 0.000, 0.000, 0.000, 23:23:32.304, 1550615012304
100, -17260.15, -66352.16, -83732.70, -58592.95, -29928.18, -13141.93, -17472.94, -8319.48, 0.000, 0.000, 0.000, 23:23:32.304, 1550615012304
101, -17262.50, -66351.22, -83732.70, -58588.82, -29939.38, -13142.02, -17483.60, -8306.42, 0.000, 0.000, 0.000, 23:23:32.305, 1550615012305
102, -17265.13, -66347.75, -83736.61, -58584.79, -29954.35, -13149.44, -17501.21, -8325.15, 0.000, 0.000, 0.000, 23:23:32.305, 1550615012305
103, -17268.96, -66349.72, -83742.84, -58586.82, -29940.00, -13153.20, -17493.19, -8351.73, 0.000, 0.000, 0.000, 23:23:32.305, 1550615012305
104, -17268.04, -66349.48, -83747.38, -58588.32, -29919.57, -13150.18, -17482.13, -8363.15, 0.000, 0.000, 0.000, 23:23:32.305, 1550615012305
105, -17267.75, -66350.10, -83751.98, -58590.74, -29936.52, -13150.96, -17493.03, -8339.53, 0.000, 0.000, 0.000, 23:23:32.367, 1550615012367
106, -17273.16, -66358.55, -83755.59, -58596.23, -29946.40, -13153.96, -17488.23, -8296.77, 0.064, -0.006, 0.992, 23:23:32.368, 1550615012368
107, -17268.24, -66356.11, -83742.66, -58592.21, -29948.41, -13148.95, -17484.81, -8266.95, 0.000, 0.000, 0.000, 23:23:32.368, 1550615012368
108, -17262.34, -66354.99, -83738.53, -58591.56, -29937.88, -13151.70, -17477.14, -8309.19, 0.000, 0.000, 0.000, 23:23:32.368, 1550615012368
109, -17263.21, -66356.83, -83740.83, -58588.82, -29944.56, -13155.66, -17480.38, -8360.98, 0.000, 0.000, 0.000, 23:23:32.368, 1550615012368
110, -17263.35, -66358.86, -83738.44, -58584.73, -29938.33, -13148.88, -17491.00, -8365.03, 0.000, 0.000, 0.000, 23:23:32.368, 1550615012368
111, -17264.06, -66359.73, -83741.32, -58589.51, -29940.41, -13148.21, -17494.42, -8373.43, 0.000, 0.000, 0.000, 23:23:32.369, 1550615012369
112, -17264.78, -66357.95, -83740.14, -58591.27, -29942.75, -13148.61, -17492.81, -8362.95, 0.000, 0.000, 0.000, 23:23:32.369, 1550615012369
113, -17274.37, -66366.66, -83744.07, -58595.01, -29950.42, -13160.13, -17506.31, -8342.16, 0.000, 0.000, 0.000, 23:23:32.369, 1550615012369
114, -17277.21, -66370.13, -83745.81, -58603.75, -29956.32, -13171.75, -17520.01, -8315.88, 0.000, 0.000, 0.000, 23:23:32.369, 1550615012369
115, -17270.75, -66363.71, -83737.05, -58594.92, -29952.65, -13162.45, -17491.56, -8342.97, 0.068, -0.006, 0.988, 23:23:32.369, 1550615012369
116, -17267.93, -66364.14, -83734.98, -58592.59, -29946.71, -13154.65, -17483.45, -8376.94, 0.000, 0.000, 0.000, 23:23:32.369, 1550615012369
117, -17273.27, -66369.41, -83743.76, -58599.95, -29965.57, -13159.99, -17512.68, -8387.47, 0.000, 0.000, 0.000, 23:23:32.369, 1550615012369
118, -17275.60, -66370.64, -83746.33, -58601.82, -29950.44, -13160.44, -17491.74, -8378.42, 0.000, 0.000, 0.000, 23:23:32.369, 1550615012369
119, -17271.24, -66367.00, -83740.07, -58594.56, -29939.06, -13158.78, -17472.04, -8370.66, 0.000, 0.000, 0.000, 23:23:32.369, 1550615012369
120, -17267.93, -66363.27, -83734.13, -58590.22, -29941.97, -13152.97, -17461.41, -8373.10, 0.000, 0.000, 0.000, 23:23:32.424, 1550615012424
121, -17268.64, -66360.78, -83735.11, -58585.37, -29932.61, -13142.96, -17451.57, -8356.58, 0.000, 0.000, 0.000, 23:23:32.424, 1550615012424
122, -17263.79, -66351.95, -83736.43, -58580.37, -29913.32, -13141.64, -17455.95, -8330.03, 0.000, 0.000, 0.000, 23:23:32.424, 1550615012424
123, -17272.73, -66364.88, -83746.71, -58598.20, -29927.98, -13154.34, -17465.63, -8302.78, 0.000, 0.000, 0.000, 23:23:32.425, 1550615012425
124, -17280.13, -66382.35, -83750.20, -58606.43, -29945.79, -13161.49, -17479.55, -8311.05, 0.000, 0.000, 0.000, 23:23:32.425, 1550615012425
125, -17277.61, -66381.46, -83748.77, -58602.16, -29943.45, -13164.48, -17489.59, -8349.40, 0.068, -0.010, 0.992, 23:23:32.425, 1550615012425
126, -17285.56, -66388.99, -83753.13, -58613.25, -29962.71, -13170.90, -17507.03, -8392.43, 0.000, 0.000, 0.000, 23:23:32.425, 1550615012425
127, -17287.87, -66385.66, -83750.77, -58604.24, -29960.37, -13166.03, -17518.76, -8382.95, 0.000, 0.000, 0.000, 23:23:32.425, 1550615012425
128, -17283.35, -66379.45, -83745.14, -58594.56, -29943.78, -13152.10, -17496.77, -8348.22, 0.000, 0.000, 0.000, 23:23:32.425, 1550615012425
129, -17282.59, -66383.27, -83746.02, -58602.32, -29936.90, -13151.30, -17488.38, -8358.03, 0.000, 0.000, 0.000, 23:23:32.425, 1550615012425
130, -17278.21, -66379.34, -83743.06, -58604.84, -29937.32, -13153.96, -17473.61, -8357.63, 0.000, 0.000, 0.000, 23:23:32.425, 1550615012425
131, -17281.14, -66379.43, -83739.18, -58606.38, -29935.22, -13149.69, -17456.22, -8342.10, 0.000, 0.000, 0.000, 23:23:32.425, 1550615012425
132, -17287.76, -66381.30, -83742.15, -58611.39, -29954.78, -13153.26, -17488.61, -8350.99, 0.000, 0.000, 0.000, 23:23:32.425, 1550615012425
133, -17285.63, -66376.21, -83742.06, -58605.60, -29950.13, -13153.75, -17502.29, -8375.47, 0.000, 0.000, 0.000, 23:23:32.425, 1550615012425
134, -17277.70, -66368.34, -83734.20, -58589.22, -29920.25, -13146.76, -17456.58, -8369.72, 0.000, 0.000, 0.000, 23:23:32.425, 1550615012425
135, -17275.42, -66363.91, -83731.09, -58600.97, -29937.23, -13152.93, -17470.99, -8366.24, 0.066, -0.010, 0.996, 23:23:32.484, 1550615012484
136, -17271.91, -66354.55, -83725.43, -58596.06, -29940.52, -13146.45, -17482.88, -8346.68, 0.000, 0.000, 0.000, 23:23:32.484, 1550615012484
137, -17274.93, -66353.16, -83732.36, -58604.17, -29943.96, -13146.04, -17489.50, -8333.40, 0.000, 0.000, 0.000, 23:23:32.485, 1550615012485
138, -17272.00, -66349.23, -83740.85, -58606.00, -29939.20, -13151.77, -17490.62, -8336.35, 0.000, 0.000, 0.000, 23:23:32.485, 1550615012485
139, -17276.38, -66345.27, -83744.20, -58599.30, -29937.05, -13153.69, -17471.49, -8345.29, 0.000, 0.000, 0.000, 23:23:32.485, 1550615012485
140, -17279.71, -66345.97, -83737.21, -58602.38, -29943.11, -13151.90, -17479.18, -8358.26, 0.000, 0.000, 0.000, 23:23:32.485, 1550615012485
141, -17282.44, -66346.30, -83734.44, -58607.93, -29964.35, -13155.52, -17504.79, -8379.40, 0.000, 0.000, 0.000, 23:23:32.485, 1550615012485
142, -17285.92, -66344.65, -83736.38, -58610.92, -29964.75, -13159.48, -17491.76, -8390.87, 0.000, 0.000, 0.000, 23:23:32.485, 1550615012485
143, -17285.43, -66338.23, -83733.74, -58598.83, -29947.80, -13157.53, -17469.70, -8390.08, 0.000, 0.000, 0.000, 23:23:32.485, 1550615012485
144, -17286.41, -66333.09, -83735.24, -58599.34, -29955.94, -13161.00, -17486.28, -8369.88, 0.000, 0.000, 0.000, 23:23:32.485, 1550615012485
145, -17281.16, -66324.87, -83728.34, -58597.84, -29967.52, -13159.30, -17506.47, -8332.82, 0.064, -0.006, 0.992, 23:23:32.485, 1550615012485
146, -17273.34, -66315.48, -83718.10, -58591.27, -29952.30, -13149.33, -17485.32, -8336.33, 0.000, 0.000, 0.000, 23:23:32.485, 1550615012485
147, -17278.03, -66317.65, -83723.33, -58593.57, -29954.22, -13159.10, -17506.29, -8333.65, 0.000, 0.000, 0.000, 23:23:32.485, 1550615012485
148, -17277.50, -66308.41, -83722.66, -58589.93, -29949.30, -13162.00, -17495.43, -8330.67, 0.000, 0.000, 0.000, 23:23:32.485, 1550615012485
149, -17278.81, -66305.93, -83726.28, -58588.08, -29958.76, -13171.99, -17508.03, -8346.25, 0.000, 0.000, 0.000, 23:23:32.486, 1550615012486
150, -17286.37, -66314.94, -83738.15, -58599.52, -29966.47, -13179.10, -17510.22, -8357.58, 0.000, 0.000, 0.000, 23:23:32.545, 1550615012545
151, -17286.37, -66315.63, -83737.84, -58605.38, -29958.65, -13174.68, -17512.35, -8357.03, 0.000, 0.000, 0.000, 23:23:32.545, 1550615012545
152, -17292.20, -66318.23, -83740.90, -58606.72, -29968.57, -13175.08, -17513.42, -8374.10, 0.000, 0.000, 0.000, 23:23:32.545, 1550615012545
153, -17289.59, -66309.35, -83739.18, -58595.39, -29958.22, -13170.34, -17491.22, -8377.14, 0.000, 0.000, 0.000, 23:23:32.546, 1550615012546
154, -17279.66, -66292.61, -83728.73, -58583.94, -29930.68, -13154.13, -17474.84, -8349.87, 0.000, 0.000, 0.000, 23:23:32.546, 1550615012546
155, -17277.76, -66286.53, -83725.02, -58585.29, -29924.92, -13147.92, -17475.58, -8336.95, 0.064, -0.004, 0.986, 23:23:32.546, 1550615012546
156, -17273.03, -66285.03, -83717.25, -58589.31, -29935.78, -13144.70, -17482.53, -8344.60, 0.000, 0.000, 0.000, 23:23:32.546, 1550615012546
157, -17277.36, -66292.08, -83719.06, -58592.61, -29964.01, -13156.15, -17507.00, -8355.24, 0.000, 0.000, 0.000, 23:23:32.546, 1550615012546
158, -17286.30, -66297.89, -83722.50, -58596.53, -29971.07, -13163.34, -17508.57, -8355.84, 0.000, 0.000, 0.000, 23:23:32.546, 1550615012546
159, -17287.60, -66297.09, -83725.43, -58594.31, -29960.43, -13165.36, -17493.30, -8362.48, 0.000, 0.000, 0.000, 23:23:32.546, 1550615012546
160, -17284.96, -66292.84, -83721.70, -58590.22, -29955.58, -13163.86, -17497.97, -8362.82, 0.000, 0.000, 0.000, 23:23:32.546, 1550615012546
161, -17286.75, -66290.58, -83719.71, -58592.77, -29964.17, -13166.21, -17519.12, -8359.75, 0.000, 0.000, 0.000, 23:23:32.546, 1550615012546
162, -17282.64, -66285.30, -83712.69, -58598.98, -29951.25, -13166.41, -17490.62, -8382.44, 0.000, 0.000, 0.000, 23:23:32.546, 1550615012546
163, -17281.32, -66283.02, -83714.79, -58594.16, -29952.54, -13169.02, -17492.81, -8405.82, 0.000, 0.000, 0.000, 23:23:32.546, 1550615012546
164, -17275.80, -66277.55, -83714.03, -58592.53, -29946.78, -13162.14, -17487.27, -8401.17, 0.000, 0.000, 0.000, 23:23:32.546, 1550615012546
165, -17283.31, -66282.55, -83730.23, -58594.85, -29959.27, -13171.91, -17503.40, -8379.87, 0.058, 0.000, 0.984, 23:23:32.603, 1550615012603
166, -17289.39, -66287.13, -83736.25, -58596.86, -29960.90, -13174.18, -17493.55, -8338.30, 0.000, 0.000, 0.000, 23:23:32.604, 1550615012604
167, -17289.61, -66286.04, -83736.05, -58601.40, -29978.74, -13183.04, -17513.13, -8352.60, 0.000, 0.000, 0.000, 23:23:32.604, 1550615012604
168, -17286.99, -66284.19, -83735.98, -58595.63, -29974.94, -13185.67, -17503.03, -8364.42, 0.000, 0.000, 0.000, 23:23:32.604, 1550615012604
169, -17283.91, -66277.13, -83736.09, -58583.34, -29966.09, -13181.47, -17493.62, -8357.56, 0.000, 0.000, 0.000, 23:23:32.604, 1550615012604
170, -17283.87, -66273.66, -83738.80, -58582.22, -29956.57, -13175.32, -17492.68, -8351.77, 0.000, 0.000, 0.000, 23:23:32.604, 1550615012604
171, -17291.60, -66277.48, -83744.74, -58590.49, -29959.65, -13175.39, -17498.87, -8360.54, 0.000, 0.000, 0.000, 23:23:32.604, 1550615012604
172, -17297.88, -66281.81, -83745.03, -58593.71, -29958.56, -13170.70, -17482.30, -8363.24, 0.000, 0.000, 0.000, 23:23:32.604, 1550615012604
173, -17295.98, -66279.31, -83741.91, -58594.92, -29957.26, -13168.98, -17489.81, -8348.22, 0.000, 0.000, 0.000, 23:23:32.604, 1550615012604
174, -17296.23, -66278.33, -83743.06, -58595.07, -29967.63, -13172.75, -17504.75, -8343.35, 0.062, -0.006, 0.992, 23:23:32.604, 1550615012604
175, -17289.48, -66272.98, -83738.51, -58596.62, -29959.65, -13169.42, -17499.00, -8361.72, 0.000, 0.000, 0.000, 23:23:32.604, 1550615012604
176, -17290.64, -66269.34, -83732.67, -58593.00, -29957.21, -13166.09, -17489.72, -8371.24, 0.000, 0.000, 0.000, 23:23:32.604, 1550615012604
177, -17288.78, -66258.66, -83730.34, -58587.96, -29957.37, -13164.62, -17491.89, -8368.56, 0.000, 0.000, 0.000, 23:23:32.604, 1550615012604
178, -17287.82, -66262.62, -83730.10, -58585.46, -29951.69, -13161.15, -17492.23, -8366.35, 0.000, 0.000, 0.000, 23:23:32.604, 1550615012604
179, -17290.04, -66273.92, -83731.06, -58600.30, -29951.38, -13157.53, -17500.12, -8370.77, 0.000, 0.000, 0.000, 23:23:32.604, 1550615012604
180, -17281.07, -66267.09, -83728.45, -58601.73, -29952.72, -13154.20, -17493.86, -8360.98, 0.000, 0.000, 0.000, 23:23:32.664, 1550615012664
181, -17270.88, -66260.20, -83721.92, -58593.80, -29951.00, -13149.26, -17493.28, -8367.73, 0.000, 0.000, 0.000, 23:23:32.664, 1550615012664
182, -17276.15, -66260.00, -83727.15, -58594.71, -29952.25, -13152.68, -17492.61, -8374.17, 0.000, 0.000, 0.000, 23:23:32.664, 1550615012664
183, -17283.31, -66256.98, -83730.98, -58589.24, -29952.95, -13155.77, -17497.44, -8366.01, 0.000, 0.000, 0.000, 23:23:32.664, 1550615012664
184, -17288.76, -66254.97, -83732.67, -58587.99, -29954.33, -13153.80, -17493.17, -8359.13, 0.062, -0.002, 0.986, 23:23:32.664, 1550615012664
185, -17288.56, -66254.46, -83729.16, -58583.27, -29939.58, -13145.04, -17479.98, -8348.06, 0.000, 0.000, 0.000, 23:23:32.664, 1550615012664
186, -17281.34, -66248.18, -83721.34, -58577.24, -29929.03, -13136.99, -17479.47, -8340.15, 0.000, 0.000, 0.000, 23:23:32.664, 1550615012664
187, -17288.38, -66255.28, -83729.79, -58585.24, -29932.43, -13145.78, -17478.28, -8320.86, 0.000, 0.000, 0.000, 23:23:32.664, 1550615012664
188, -17294.24, -66260.96, -83732.11, -58589.26, -29933.97, -13151.61, -17483.62, -8306.18, 0.000, 0.000, 0.000, 23:23:32.664, 1550615012664
189, -17292.36, -66259.58, -83730.03, -58587.41, -29939.96, -13158.85, -17499.13, -8343.08, 0.000, 0.000, 0.000, 23:23:32.664, 1550615012664
190, -17292.11, -66254.57, -83730.84, -58579.11, -29942.40, -13156.48, -17495.65, -8373.41, 0.000, 0.000, 0.000, 23:23:32.665, 1550615012665
191, -17289.28, -66251.53, -83731.60, -58575.88, -29949.10, -13149.11, -17497.15, -8368.92, 0.000, 0.000, 0.000, 23:23:32.665, 1550615012665
192, -17288.27, -66250.66, -83739.60, -58580.75, -29941.39, -13150.13, -17478.42, -8334.18, 0.000, 0.000, 0.000, 23:23:32.665, 1550615012665
193, -17305.26, -66269.14, -83759.56, -58601.11, -29960.25, -13170.18, -17500.23, -8339.14, 0.000, 0.000, 0.000, 23:23:32.665, 1550615012665
194, -17302.39, -66267.42, -83763.43, -58595.05, -29973.64, -13182.75, -17525.78, -8373.52, 0.068, 0.002, 0.992, 23:23:32.665, 1550615012665
195, -17287.24, -66254.13, -83745.32, -58587.41, -29952.50, -13170.70, -17504.88, -8362.21, 0.000, 0.000, 0.000, 23:23:32.724, 1550615012724
196, -17292.11, -66261.79, -83744.02, -58595.52, -29951.11, -13172.04, -17500.77, -8370.24, 0.000, 0.000, 0.000, 23:23:32.724, 1550615012724
197, -17294.97, -66259.98, -83742.59, -58591.39, -29942.53, -13169.45, -17483.29, -8335.10, 0.000, 0.000, 0.000, 23:23:32.724, 1550615012724
198, -17300.07, -66262.91, -83746.58, -58601.31, -29952.05, -13172.64, -17499.78, -8304.83, 0.000, 0.000, 0.000, 23:23:32.724, 1550615012724
199, -17300.29, -66258.73, -83748.02, -58595.97, -29957.53, -13171.75, -17506.38, -8374.44, 0.000, 0.000, 0.000, 23:23:32.724, 1550615012724
200, -17298.37, -66254.50, -83749.55, -58588.86, -29944.27, -13166.56, -17489.61, -8394.38, 0.000, 0.000, 0.000, 23:23:32.724, 1550615012724
201, -17298.33, -66250.59, -83748.20, -58587.99, -29942.26, -13164.66, -17489.19, -8384.09, 0.000, 0.000, 0.000, 23:23:32.725, 1550615012725
202, -17298.55, -66249.23, -83752.85, -58584.05, -29945.28, -13163.59, -17497.32, -8373.88, 0.000, 0.000, 0.000, 23:23:32.725, 1550615012725
203, -17310.60, -66259.46, -83765.26, -58596.46, -29967.29, -13177.31, -17522.85, -8388.43, 0.000, 0.000, 0.000, 23:23:32.725, 1550615012725
204, -17312.81, -66255.87, -83763.74, -58595.61, -29987.41, -13181.63, -17551.95, -8367.02, 0.064, 0.000, 0.988, 23:23:32.725, 1550615012725
205, -17304.47, -66249.36, -83755.31, -58589.04, -29968.03, -13170.56, -17522.00, -8343.73, 0.000, 0.000, 0.000, 23:23:32.725, 1550615012725
206, -17298.51, -66241.98, -83745.30, -58581.48, -29920.74, -13150.92, -17456.87, -8330.70, 0.000, 0.000, 0.000, 23:23:32.725, 1550615012725
207, -17304.61, -66250.50, -83750.44, -58586.96, -29924.38, -13152.08, -17462.84, -8344.04, 0.000, 0.000, 0.000, 23:23:32.725, 1550615012725
208, -17301.93, -66249.07, -83751.34, -58586.45, -29931.89, -13158.23, -17479.15, -8358.52, 0.000, 0.000, 0.000, 23:23:32.725, 1550615012725
209, -17302.75, -66250.28, -83747.27, -58588.37, -29950.31, -13162.27, -17501.50, -8370.10, 0.000, 0.000, 0.000, 23:23:32.725, 1550615012725
210, -17297.48, -66250.14, -83743.52, -58586.25, -29946.08, -13163.43, -17494.26, -8356.74, 0.000, 0.000, 0.000, 23:23:32.785, 1550615012785
211, -17292.90, -66247.41, -83741.84, -58591.83, -29940.47, -13164.82, -17488.88, -8334.88, 0.000, 0.000, 0.000, 23:23:32.785, 1550615012785
212, -17292.63, -66242.92, -83746.87, -58587.59, -29944.25, -13162.58, -17491.71, -8342.79, 0.000, 0.000, 0.000, 23:23:32.785, 1550615012785
213, -17288.67, -66237.52, -83745.19, -58578.73, -29955.63, -13162.92, -17519.39, -8370.06, 0.000, 0.000, 0.000, 23:23:32.785, 1550615012785
214, -17288.09, -66237.31, -83752.74, -58581.93, -29963.96, -13169.13, -17524.57, -8374.73, 0.064, -0.002, 0.990, 23:23:32.785, 1550615012785
215, -17279.33, -66226.16, -83740.49, -58565.17, -29930.46, -13156.04, -17483.11, -8363.22, 0.000, 0.000, 0.000, 23:23:32.785, 1550615012785
216, -17285.54, -66229.80, -83741.12, -58572.77, -29938.95, -13158.11, -17479.98, -8365.27, 0.000, 0.000, 0.000, 23:23:32.786, 1550615012786
217, -17289.61, -66230.50, -83740.45, -58582.33, -29953.79, -13161.51, -17499.85, -8372.78, 0.000, 0.000, 0.000, 23:23:32.786, 1550615012786
218, -17296.88, -66237.42, -83747.06, -58587.52, -29963.70, -13167.34, -17505.97, -8377.28, 0.000, 0.000, 0.000, 23:23:32.786, 1550615012786
219, -17292.72, -66230.83, -83741.26, -58576.75, -29948.05, -13158.38, -17502.62, -8370.71, 0.000, 0.000, 0.000, 23:23:32.786, 1550615012786
220, -17292.36, -66231.05, -83738.35, -58575.14, -29945.01, -13153.64, -17496.41, -8358.41, 0.000, 0.000, 0.000, 23:23:32.786, 1550615012786
221, -17297.95, -66239.88, -83739.11, -58588.21, -29954.33, -13164.22, -17493.82, -8342.01, 0.000, 0.000, 0.000, 23:23:32.786, 1550615012786
222, -17299.22, -66239.21, -83737.21, -58593.00, -29958.98, -13172.78, -17508.19, -8340.55, 0.000, 0.000, 0.000, 23:23:32.786, 1550615012786
223, -17296.07, -66234.56, -83734.30, -58593.26, -29959.58, -13171.84, -17509.44, -8330.54, 0.000, 0.000, 0.000, 23:23:32.787, 1550615012787
224, -17292.81, -66229.60, -83738.20, -58585.08, -29965.75, -13173.13, -17514.29, -8330.09, 0.068, -0.002, 0.984, 23:23:32.788, 1550615012788
225, -17289.48, -66225.78, -83738.55, -58577.82, -29946.87, -13164.91, -17482.82, -8368.38, 0.000, 0.000, 0.000, 23:23:32.845, 1550615012845
226, -17292.45, -66227.59, -83737.14, -58581.26, -29943.54, -13160.15, -17482.33, -8384.18, 0.000, 0.000, 0.000, 23:23:32.845, 1550615012845
227, -17292.58, -66225.18, -83736.02, -58577.48, -29939.20, -13161.02, -17494.35, -8383.60, 0.000, 0.000, 0.000, 23:23:32.845, 1550615012845
228, -17302.24, -66232.95, -83748.85, -58582.89, -29956.75, -13167.77, -17506.04, -8362.86, 0.000, 0.000, 0.000, 23:23:32.845, 1550615012845
229, -17305.08, -66232.71, -83752.56, -58580.99, -29956.68, -13165.98, -17503.36, -8341.36, 0.000, 0.000, 0.000, 23:23:32.845, 1550615012845
230, -17304.18, -66230.50, -83748.77, -58581.15, -29944.68, -13165.78, -17490.33, -8346.12, 0.000, 0.000, 0.000, 23:23:32.845, 1550615012845
231, -17301.84, -66229.27, -83745.55, -58580.66, -29953.04, -13169.25, -17484.54, -8360.11, 0.000, 0.000, 0.000, 23:23:32.845, 1550615012845
232, -17296.36, -66222.77, -83736.98, -58571.87, -29955.29, -13168.53, -17493.35, -8366.55, 0.000, 0.000, 0.000, 23:23:32.845, 1550615012845
233, -17297.93, -66225.53, -83740.34, -58578.31, -29950.87, -13174.27, -17503.05, -8376.79, 0.068, -0.008, 0.990, 23:23:32.845, 1550615012845
234, -17301.88, -66234.56, -83749.77, -58583.68, -29953.55, -13179.97, -17500.12, -8368.94, 0.000, 0.000, 0.000, 23:23:32.845, 1550615012845
235, -17299.82, -66237.20, -83749.63, -58585.21, -29948.70, -13179.17, -17507.14, -8369.88, 0.000, 0.000, 0.000, 23:23:32.846, 1550615012846
236, -17301.57, -66237.90, -83750.20, -58587.70, -29956.86, -13173.09, -17505.42, -8379.24, 0.000, 0.000, 0.000, 23:23:32.846, 1550615012846
237, -17303.65, -66237.80, -83749.28, -58590.87, -29970.60, -13171.93, -17517.66, -8374.21, 0.000, 0.000, 0.000, 23:23:32.846, 1550615012846
238, -17302.33, -66236.13, -83753.66, -58586.45, -29965.73, -13176.96, -17523.79, -8380.41, 0.000, 0.000, 0.000, 23:23:32.846, 1550615012846
239, -17299.20, -66232.09, -83759.52, -58581.66, -29946.04, -13179.66, -17493.64, -8373.99, 0.000, 0.000, 0.000, 23:23:32.846, 1550615012846
240, -17301.84, -66232.40, -83762.22, -58581.37, -29948.70, -13183.64, -17497.30, -8360.96, 0.000, 0.000, 0.000, 23:23:32.905, 1550615012905
241, -17310.33, -66243.13, -83762.58, -58594.22, -29956.01, -13187.84, -17494.06, -8342.21, 0.000, 0.000, 0.000, 23:23:32.905, 1550615012905
242, -17315.49, -66244.94, -83755.88, -58593.66, -29973.35, -13190.61, -17514.80, -8355.66, 0.000, 0.000, 0.000, 23:23:32.905, 1550615012905
243, -17311.96, -66240.95, -83750.44, -58589.96, -29967.18, -13192.80, -17515.88, -8383.85, 0.062, -0.006, 0.986, 23:23:32.905, 1550615012905
244, -17307.47, -66237.54, -83748.38, -58586.98, -29955.96, -13187.89, -17494.02, -8372.43, 0.000, 0.000, 0.000, 23:23:32.905, 1550615012905
245, -17306.22, -66238.19, -83751.13, -58578.45, -29958.85, -13183.86, -17503.79, -8373.77, 0.000, 0.000, 0.000, 23:23:32.905, 1550615012905
246, -17302.87, -66235.30, -83749.99, -58581.46, -29950.26, -13178.50, -17488.74, -8386.42, 0.000, 0.000, 0.000, 23:23:32.905, 1550615012905
247, -17302.87, -66233.65, -83751.29, -58578.98, -29933.14, -13173.42, -17476.54, -8373.28, 0.000, 0.000, 0.000, 23:23:32.905, 1550615012905
248, -17301.55, -66237.09, -83758.06, -58585.29, -29955.00, -13181.54, -17503.03, -8367.96, 0.000, 0.000, 0.000, 23:23:32.905, 1550615012905
249, -17294.48, -66235.23, -83760.61, -58587.18, -29952.28, -13183.59, -17488.70, -8361.25, 0.000, 0.000, 0.000, 23:23:32.905, 1550615012905
250, -17291.35, -66233.60, -83756.95, -58585.20, -29948.79, -13180.91, -17489.99, -8338.36, 0.000, 0.000, 0.000, 23:23:32.905, 1550615012905
251, -17295.42, -66239.08, -83758.71, -58591.21, -29964.35, -13187.98, -17503.45, -8356.11, 0.000, 0.000, 0.000, 23:23:32.905, 1550615012905
252, -17292.96, -66238.72, -83746.93, -58587.74, -29968.03, -13183.24, -17495.92, -8385.84, 0.000, 0.000, 0.000, 23:23:32.905, 1550615012905
253, -17288.09, -66235.75, -83735.38, -58576.16, -29962.87, -13173.16, -17487.74, -8375.85, 0.062, -0.008, 0.988, 23:23:32.905, 1550615012905
254, -17293.66, -66241.43, -83742.17, -58581.37, -29974.52, -13180.24, -17499.83, -8382.17, 0.000, 0.000, 0.000, 23:23:32.905, 1550615012905
255, -17286.48, -66239.08, -83734.17, -58578.89, -29957.62, -13171.75, -17492.07, -8379.98, 0.000, 0.000, 0.000, 23:23:32.964, 1550615012964
0, -17286.03, -66241.00, -83736.36, -58578.00, -29955.74, -13177.18, -17499.36, -8386.58, 0.000, 0.000, 0.000, 23:23:32.964, 1550615012964
1, -17285.36, -66244.31, -83744.80, -58576.23, -29947.29, -13182.99, -17489.50, -8382.46, 0.000, 0.000, 0.000, 23:23:32.964, 1550615012964
2, -17290.19, -66247.59, -83754.13, -58570.42, -29958.02, -13194.46, -17505.51, -8387.65, 0.000, 0.000, 0.000, 23:23:32.964, 1550615012964
3, -17296.81, -66253.23, -83767.36, -58576.14, -29977.33, -13213.99, -17531.84, -8390.82, 0.000, 0.000, 0.000, 23:23:32.964, 1550615012964
4, -17297.34, -66260.25, -83769.46, -58584.41, -29986.56, -13224.05, -17525.26, -8372.99, 0.000, 0.000, 0.000, 23:23:32.964, 1550615012964
5, -17295.76, -66264.70, -83763.98, -58592.05, -29992.31, -13221.77, -17531.52, -8372.70, 0.000, 0.000, 0.000, 23:23:32.964, 1550615012964
6, -17289.61, -66261.84, -83764.41, -58590.58, -29976.42, -13213.70, -17520.28, -8382.95, 0.000, 0.000, 0.000, 23:23:32.964, 1550615012964
7, -17294.46, -66273.92, -83776.95, -58599.81, -29967.34, -13212.23, -17494.64, -8389.55, 0.060, -0.012, 0.986, 23:23:32.964, 1550615012964
8, -17290.73, -66271.00, -83779.23, -58602.85, -29971.54, -13217.39, -17504.30, -8405.60, 0.000, 0.000, 0.000, 23:23:32.964, 1550615012964
9, -17283.57, -66267.22, -83771.85, -58588.64, -29972.32, -13219.87, -17507.21, -8400.54, 0.000, 0.000, 0.000, 23:23:32.965, 1550615012965
10, -17287.35, -66276.50, -83764.61, -58586.71, -29966.33, -13212.74, -17484.63, -8401.60, 0.000, 0.000, 0.000, 23:23:32.965, 1550615012965
11, -17288.38, -66279.94, -83760.74, -58594.52, -29963.79, -13206.57, -17498.08, -8392.66, 0.000, 0.000, 0.000, 23:23:32.965, 1550615012965
12, -17291.64, -66281.68, -83764.77, -58593.49, -29956.05, -13210.57, -17502.69, -8394.78, 0.000, 0.000, 0.000, 23:23:32.965, 1550615012965
13, -17306.53, -66297.82, -83784.15, -58600.73, -29981.67, -13229.80, -17520.48, -8411.61, 0.000, 0.000, 0.000, 23:23:32.965, 1550615012965
14, -17303.60, -66296.59, -83778.11, -58592.10, -29987.48, -13227.40, -17521.85, -8405.19, 0.000, 0.000, 0.000, 23:23:33.024, 1550615013024
15, -17301.46, -66294.80, -83771.48, -58595.30, -29977.82, -13217.64, -17505.86, -8388.88, 0.000, 0.000, 0.000, 23:23:33.024, 1550615013024
16, -17294.48, -66290.35, -83766.31, -58587.27, -29955.67, -13205.01, -17491.25, -8362.26, 0.000, 0.000, 0.000, 23:23:33.024, 1550615013024
17, -17301.08, -66300.62, -83774.31, -58591.48, -29963.34, -13213.14, -17497.95, -8355.73, 0.064, -0.008, 0.994, 23:23:33.024, 1550615013024
18, -17302.15, -66302.70, -83774.09, -58594.20, -29968.88, -13219.31, -17515.90, -8377.01, 0.000, 0.000, 0.000, 23:23:33.025, 1550615013025
19, -17302.64, -66305.27, -83770.00, -58596.79, -29977.20, -13223.07, -17507.90, -8403.34, 0.000, 0.000, 0.000, 23:23:33.025, 1550615013025
20, -17298.46, -66305.11, -83759.49, -58595.30, -29971.43, -13208.00, -17499.94, -8409.73, 0.000, 0.000, 0.000, 23:23:33.025, 1550615013025
21, -17293.14, -66302.45, -83754.30, -58588.41, -29963.79, -13195.06, -17511.16, -8407.76, 0.000, 0.000, 0.000, 23:23:33.025, 1550615013025
22, -17295.62, -66308.62, -83763.74, -58596.46, -29967.47, -13201.32, -17514.63, -8407.99, 0.000, 0.000, 0.000, 23:23:33.025, 1550615013025
23, -17296.56, -66307.66, -83764.81, -58589.91, -29968.57, -13199.98, -17495.54, -8392.57, 0.000, 0.000, 0.000, 23:23:33.025, 1550615013025
24, -17294.08, -66309.38, -83759.52, -58586.85, -29955.27, -13193.27, -17496.88, -8368.20, 0.000, 0.000, 0.000, 23:23:33.025, 1550615013025
25, -17288.27, -66301.15, -83753.08, -58578.71, -29947.13, -13187.71, -17497.32, -8361.99, 0.000, 0.000, 0.000, 23:23:33.025, 1550615013025
26, -17295.91, -66307.59, -83756.56, -58577.46, -29942.11, -13186.75, -17484.74, -8357.14, 0.000, 0.000, 0.000, 23:23:33.025, 1550615013025
27, -17296.76, -66312.69, -83761.46, -58582.16, -29947.20, -13196.33, -17483.98, -8371.51, 0.062, -0.004, 0.990, 23:23:33.025, 1550615013025
28, -17291.64, -66312.15, -83759.38, -58588.46, -29952.92, -13204.11, -17499.09, -8376.47, 0.000, 0.000, 0.000, 23:23:33.025, 1550615013025
29, -17286.37, -66307.81, -83751.88, -58587.21, -29946.62, -13194.28, -17489.44, -8378.60, 0.000, 0.000, 0.000, 23:23:33.092, 1550615013092
30, -17287.69, -66310.41, -83751.54, -58581.51, -29965.42, -13191.71, -17498.15, -8380.52, 0.000, 0.000, 0.000, 23:23:33.092, 1550615013092
31, -17288.27, -66313.84, -83753.50, -58581.28, -29969.49, -13197.63, -17503.05, -8383.49, 0.000, 0.000, 0.000, 23:23:33.092, 1550615013092
32, -17290.39, -66314.16, -83758.35, -58580.39, -29968.35, -13203.64, -17505.33, -8391.60, 0.000, 0.000, 0.000, 23:23:33.092, 1550615013092
33, -17290.28, -66312.82, -83763.34, -58582.16, -29977.42, -13207.87, -17510.91, -8398.71, 0.000, 0.000, 0.000, 23:23:33.092, 1550615013092
34, -17296.36, -66331.08, -83763.80, -58594.54, -29973.46, -13205.03, -17516.64, -8400.14, 0.000, 0.000, 0.000, 23:23:33.092, 1550615013092
35, -17303.31, -66345.72, -83762.13, -58603.19, -29964.68, -13203.11, -17504.79, -8400.05, 0.000, 0.000, 0.000, 23:23:33.092, 1550615013092
36, -17293.79, -66341.20, -83760.88, -58601.15, -29957.91, -13205.66, -17508.90, -8382.84, 0.000, 0.000, 0.000, 23:23:33.092, 1550615013092
37, -17289.72, -66342.03, -83766.65, -58601.62, -29969.53, -13214.66, -17510.83, -8370.01, 0.064, -0.006, 0.994, 23:23:33.092, 1550615013092
38, -17284.07, -66335.91, -83762.69, -58595.41, -29972.64, -13211.60, -17513.96, -8365.39, 0.000, 0.000, 0.000, 23:23:33.092, 1550615013092
39, -17288.04, -66334.61, -83763.31, -58589.62, -29969.26, -13206.55, -17514.20, -8386.20, 0.000, 0.000, 0.000, 23:23:33.093, 1550615013093
40, -17296.00, -66339.84, -83766.27, -58594.71, -29978.54, -13202.55, -17509.91, -8405.08, 0.000, 0.000, 0.000, 23:23:33.093, 1550615013093
41, -17295.47, -66338.59, -83763.92, -58592.53, -29976.71, -13196.18, -17498.40, -8409.22, 0.000, 0.000, 0.000, 23:23:33.093, 1550615013093
42, -17296.83, -66341.54, -83769.17, -58596.35, -29981.56, -13202.71, -17516.66, -8409.11, 0.000, 0.000, 0.000, 23:23:33.093, 1550615013093
43, -17299.62, -66345.32, -83774.16, -58601.55, -29979.10, -13206.84, -17511.59, -8422.11, 0.000, 0.000, 0.000, 23:23:33.093, 1550615013093
44, -17292.90, -66337.92, -83766.55, -58594.61, -29963.63, -13197.63, -17496.10, -8397.86, 0.000, 0.000, 0.000, 23:23:33.146, 1550615013146
45, -17292.58, -66337.12, -83759.34, -58589.24, -29964.01, -13188.74, -17508.97, -8375.35, 0.000, 0.000, 0.000, 23:23:33.146, 1550615013146
46, -17289.90, -66337.43, -83753.81, -58589.60, -29957.06, -13180.62, -17498.40, -8374.82, 0.062, 0.000, 0.990, 23:23:33.146, 1550615013146
47, -17300.61, -66348.78, -83766.04, -58600.26, -29964.64, -13191.82, -17511.50, -8391.67, 0.000, 0.000, 0.000, 23:23:33.146, 1550615013146
48, -17300.54, -66349.50, -83766.98, -58597.31, -29961.10, -13192.58, -17502.46, -8403.50, 0.000, 0.000, 0.000, 23:23:33.146, 1550615013146
49, -17301.68, -66355.29, -83765.55, -58602.07, -29975.34, -13193.21, -17519.01, -8398.87, 0.000, 0.000, 0.000, 23:23:33.146, 1550615013146
50, -17299.74, -66355.40, -83762.09, -58599.16, -29969.78, -13189.03, -17508.54, -8395.65, 0.000, 0.000, 0.000, 23:23:33.146, 1550615013146
51, -17297.03, -66355.11, -83760.84, -58591.68, -29963.74, -13183.89, -17500.43, -8384.41, 0.000, 0.000, 0.000, 23:23:33.146, 1550615013146
52, -17299.27, -66358.91, -83765.98, -58594.80, -29976.28, -13190.39, -17512.37, -8375.40, 0.000, 0.000, 0.000, 23:23:33.146, 1550615013146
53, -17297.21, -66355.87, -83762.40, -58589.26, -29959.94, -13184.09, -17499.72, -8357.47, 0.000, 0.000, 0.000, 23:23:33.146, 1550615013146
54, -17303.56, -66361.70, -83766.52, -58588.14, -29962.24, -13184.94, -17511.41, -8378.08, 0.000, 0.000, 0.000, 23:23:33.146, 1550615013146
55, -17306.22, -66360.07, -83758.51, -58584.93, -29965.31, -13174.27, -17514.47, -8388.18, 0.000, 0.000, 0.000, 23:23:33.146, 1550615013146
56, -17304.96, -66357.16, -83750.55, -58576.52, -29960.10, -13169.85, -17516.32, -8375.22, 0.062, -0.002, 0.996, 23:23:33.147, 1550615013147
57, -17298.42, -66354.91, -83749.91, -58580.57, -29941.46, -13168.49, -17501.73, -8373.21, 0.000, 0.000, 0.000, 23:23:33.147, 1550615013147
58, -17300.90, -66359.02, -83761.35, -58583.56, -29955.14, -13178.83, -17499.81, -8380.58, 0.000, 0.000, 0.000, 23:23:33.147, 1550615013147
59, -17304.70, -66364.45, -83768.41, -58589.84, -29975.88, -13189.14, -17524.86, -8389.03, 0.000, 0.000, 0.000, 23:23:33.204, 1550615013204
60, -17299.06, -66358.88, -83761.46, -58585.15, -29967.54, -13182.32, -17524.82, -8383.31, 0.000, 0.000, 0.000, 23:23:33.204, 1550615013204
61, -17296.72, -66359.38, -83760.43, -58584.97, -29972.48, -13174.63, -17532.22, -8372.94, 0.000, 0.000, 0.000, 23:23:33.204, 1550615013204
62, -17295.31, -66363.60, -83756.43, -58584.46, -29964.52, -13166.29, -17509.33, -8366.12, 0.000, 0.000, 0.000, 23:23:33.204, 1550615013204
63, -17288.45, -66358.21, -83750.11, -58578.51, -29964.17, -13164.82, -17498.69, -8342.50, 0.000, 0.000, 0.000, 23:23:33.205, 1550615013205
64, -17288.65, -66355.33, -83750.66, -58575.67, -29957.62, -13164.64, -17491.07, -8347.19, 0.000, 0.000, 0.000, 23:23:33.205, 1550615013205
65, -17297.32, -66366.13, -83756.88, -58579.50, -29956.10, -13166.38, -17507.67, -8366.75, 0.000, 0.000, 0.000, 23:23:33.205, 1550615013205
66, -17301.61, -66373.77, -83762.31, -58589.73, -29990.05, -13172.71, -17533.31, -8398.76, 0.064, -0.002, 0.994, 23:23:33.205, 1550615013205
67, -17299.38, -66367.87, -83761.05, -58586.38, -29989.36, -13170.34, -17534.74, -8398.31, 0.000, 0.000, 0.000, 23:23:33.205, 1550615013205
68, -17294.73, -66363.47, -83757.39, -58582.63, -29955.00, -13159.30, -17486.46, -8369.70, 0.000, 0.000, 0.000, 23:23:33.205, 1550615013205
69, -17290.37, -66359.78, -83747.52, -58580.55, -29945.14, -13145.24, -17472.78, -8371.29, 0.000, 0.000, 0.000, 23:23:33.205, 1550615013205
70, -17285.36, -66350.23, -83739.96, -58557.97, -29948.19, -13132.95, -17472.40, -8339.64, 0.000, 0.000, 0.000, 23:23:33.205, 1550615013205
71, -17292.96, -66362.69, -83752.84, -58576.07, -29967.79, -13144.99, -17490.46, -8361.21, 0.000, 0.000, 0.000, 23:23:33.205, 1550615013205
72, -17298.10, -66371.29, -83757.33, -58582.89, -29971.65, -13151.86, -17498.35, -8376.18, 0.000, 0.000, 0.000, 23:23:33.205, 1550615013205
73, -17298.21, -66370.73, -83758.66, -58585.37, -29967.72, -13156.50, -17499.85, -8382.53, 0.000, 0.000, 0.000, 23:23:33.205, 1550615013205
74, -17297.99, -66370.46, -83761.41, -58579.76, -29982.56, -13159.90, -17512.41, -8372.27, 0.000, 0.000, 0.000, 23:23:33.264, 1550615013264
75, -17304.18, -66372.52, -83764.91, -58579.25, -29979.77, -13154.85, -17512.41, -8378.66, 0.000, 0.000, 0.000, 23:23:33.264, 1550615013264
76, -17301.46, -66371.23, -83760.30, -58580.55, -29960.77, -13147.63, -17500.95, -8389.32, 0.066, -0.002, 0.994, 23:23:33.264, 1550615013264
77, -17298.26, -66369.79, -83756.63, -58581.59, -29943.67, -13139.29, -17489.97, -8391.18, 0.000, 0.000, 0.000, 23:23:33.264, 1550615013264
78, -17304.34, -66374.04, -83769.95, -58581.37, -29966.56, -13146.67, -17493.75, -8377.54, 0.000, 0.000, 0.000, 23:23:33.264, 1550615013264
79, -17312.34, -66383.83, -83779.38, -58591.72, -29980.30, -13160.55, -17511.52, -8377.46, 0.000, 0.000, 0.000, 23:23:33.264, 1550615013264
80, -17308.32, -66381.93, -83770.76, -58587.32, -29976.28, -13158.96, -17503.65, -8382.53, 0.000, 0.000, 0.000, 23:23:33.264, 1550615013264
81, -17304.03, -66378.20, -83757.35, -58581.19, -29960.66, -13152.75, -17479.55, -8377.14, 0.000, 0.000, 0.000, 23:23:33.264, 1550615013264
82, -17301.37, -66373.93, -83753.75, -58580.84, -29955.29, -13152.44, -17477.88, -8382.51, 0.000, 0.000, 0.000, 23:23:33.264, 1550615013264
83, -17295.87, -66367.29, -83754.15, -58574.22, -29943.49, -13150.54, -17485.95, -8369.21, 0.000, 0.000, 0.000, 23:23:33.264, 1550615013264
